E(eV)	f1	f2
10.0000	-9999.	1.19484	
10.1617	-9999.	1.15672	
10.3261	-9999.	1.11982	
10.4931	-9999.	1.08410	
10.6628	-9999.	1.04952	
10.8353	-9999.	1.01604	
11.0106	-9999.	0.982343	
11.1886	-9999.	0.946689	
11.3696	-9999.	0.912330	
11.5535	-9999.	0.881524	
11.7404	-9999.	0.859053	
11.9303	-9999.	0.837152	
12.1232	-9999.	0.815811	
12.3193	-9999.	0.794970	
12.5186	-9999.	0.773794	
12.7210	-9999.	0.753182	
12.9268	-9999.	0.733119	
13.1359	-9999.	0.713591	
13.3483	-9999.	0.687995	
13.5642	-9999.	0.662100	
13.7836	-9999.	0.637180	
14.0066	-9999.	0.619840	
14.2331	-9999.	0.613379	
14.4633	-9999.	0.606984	
14.6973	-9999.	0.597514	
14.9350	-9999.	0.589582	
15.1765	-9999.	0.593095	
15.4220	-9999.	0.605186	
15.6714	-9999.	0.639248	
15.9249	-9999.	0.736397	
16.1825	-9999.	0.901612	
16.4442	-9999.	1.08234	
16.7102	-9999.	1.33842	
16.9805	-9999.	1.62334	
17.2551	-9999.	1.96852	
17.5342	-9999.	2.46480	
17.8178	-9999.	2.86404	
18.1060	-9999.	3.23904	
18.3989	-9999.	3.73116	
18.6964	-9999.	4.29807	
18.9988	-9999.	4.76244	
19.3061	-9999.	5.27453	
19.6184	-9999.	5.84167	
19.9357	-9999.	6.47315	
20.2582	-9999.	7.17382	
20.5858	-9999.	7.88646	
20.9188	-9999.	8.33334	
21.2571	-9999.	8.80555	
21.6009	-9999.	9.29141	
21.9503	-9999.	9.77487	
22.3053	-9999.	10.2835	
22.6661	-9999.	10.8186	
23.0327	-9999.	11.0979	
23.4053	-9999.	11.3550	
23.7838	-9999.	11.6181	
24.1685	-9999.	11.8873	
24.5594	-9999.	12.1627	
24.9566	-9999.	12.3644	
25.3603	-9999.	12.5672	
25.7705	-9999.	12.6684	
26.1873	-9999.	12.6700	
26.6109	-9999.	12.6715	
27.0413	-9999.	12.6731	
27.4786	-9999.	12.6121	
27.9231	-9999.	12.5434	
28.3747	-9999.	12.4752	
28.8337	-9999.	12.4073	
29.3000	12.4245	12.0941	
29.7739	12.9268	11.6800	
30.2555	13.3157	11.2806	
30.7449	13.6584	10.9279	
31.2421	13.9870	10.5862	
31.7475	14.3327	10.2552	
32.2609	14.6844	9.79875	
32.7827	14.9076	9.32203	
33.3130	15.0551	8.86851	
33.8518	15.1417	8.43705	
34.3993	15.1810	8.08192	
34.9557	15.2439	7.76168	
35.5211	15.3216	7.45413	
36.0956	15.4359	7.12481	
36.6794	15.4948	6.72992	
37.2727	15.5134	6.35692	
37.8755	15.4911	5.95761	
38.4882	15.4129	5.58207	
39.1107	15.2842	5.23526	
39.7432	15.1457	4.95437	
40.3861	15.0107	4.68855	
41.0393	14.8686	4.43700	
41.7031	14.7171	4.20324	
42.3776	14.5621	3.98413	
43.0630	14.4017	3.77644	
43.7595	14.2347	3.57975	
44.4673	14.0618	3.39405	
45.1865	13.8834	3.21800	
45.9174	13.7004	3.05106	
46.6600	13.5172	2.89279	
47.4147	13.3232	2.71994	
48.1816	13.1085	2.55684	
48.9609	12.8768	2.40351	
49.7528	12.6248	2.25938	
50.5576	12.3447	2.14838	
51.3753	12.0809	2.06175	
52.2062	11.8203	1.97862	
53.0506	11.5528	1.89883	
53.9087	11.2713	1.82477	
54.7806	10.9865	1.76874	
55.6667	10.6988	1.71443	
56.5670	10.4019	1.66179	
57.4820	10.0928	1.61393	
58.4117	9.77245	1.56876	
59.3564	9.43719	1.52485	
60.3165	9.08338	1.48305	
61.2921	8.70821	1.44287	
62.2834	8.30415	1.40378	
63.2908	7.87360	1.38238	
64.3145	7.41514	1.36193	
65.3547	6.92040	1.35982	
66.4118	6.40075	1.36644	
67.4859	5.83314	1.38985	
68.5775	5.24931	1.42283	
69.6867	4.61876	1.45087	
70.8138	3.92783	1.48080	
71.9591	3.16375	1.51197	
73.1230	2.30143	1.54380	
74.3057	1.32718	1.61195	
75.5076	0.231366	1.68979	
76.7289	-1.03035	1.79026	
77.9699	-2.51345	1.90280	
79.2310	-4.35667	2.05900	
80.5125	-6.65942	2.31287	
81.8147	-9.96555	2.88991	
83.1380	-14.0760	4.53099	
84.4827	-19.4477	7.43494	
85.8491	-27.1953	18.5978	
87.2377	-19.3023	28.8378	
88.6487	-13.1090	31.7133	
90.0825	-9.83729	33.5326	
91.5395	-6.75249	35.3832	
93.0201	-3.95562	36.5484	
94.5246	-1.43201	37.7519	
96.0535	1.10684	38.9950	
97.6071	3.96560	39.8900	
99.1858	6.49034	40.3877	
100.790	8.92850	40.8916	
102.420	11.6171	41.2553	
104.077	14.0894	41.1960	
105.760	16.4150	41.1369	
107.471	18.8600	40.9401	
109.209	21.1317	40.5311	
110.975	23.4116	40.1262	
112.770	26.1403	39.7253	
114.594	28.6178	38.0711	
116.448	30.4916	36.4661	
118.331	32.1412	34.9287	
120.245	33.6060	33.1579	
122.190	34.7065	31.3848	
124.166	35.5408	29.7066	
126.175	36.2010	28.1180	
128.215	36.7211	26.6144	
130.289	37.1257	25.1912	
132.397	37.4337	23.8442	
134.538	37.6600	22.5691	
136.714	37.8170	21.3623	
138.925	37.9147	20.2200	
141.172	37.9621	19.1387	
143.456	37.9667	18.1153	
145.776	37.9357	17.1466	
148.134	37.8754	16.2297	
150.530	37.7930	15.3618	
152.964	37.6967	14.5404	
155.439	37.6007	13.7629	
157.953	37.5543	13.0269	
160.507	37.4680	12.1385	
163.103	37.2728	11.2915	
165.742	37.0036	10.5036	
168.422	36.6944	9.77065	
171.146	36.3556	9.08888	
173.915	35.9936	8.45466	
176.727	35.6131	7.86472	
179.586	35.2167	7.31592	
182.491	34.8061	6.80544	
185.442	34.3805	6.33057	
188.442	33.9356	5.88883	
191.489	33.4436	5.47793	
194.587	32.9726	5.20869	
197.734	32.5446	4.95307	
200.932	32.1427	4.70998	
204.182	31.7512	4.47883	
207.485	31.3648	4.25903	
210.840	30.9781	4.05000	
214.251	30.5687	3.86342	
217.716	30.1804	3.71588	
221.237	29.8093	3.57398	
224.816	29.4407	3.43750	
228.452	29.0633	3.30623	
232.147	28.6859	3.20132	
235.902	28.3148	3.10263	
239.717	27.9394	3.00698	
243.595	27.5283	2.92899	
247.535	27.1376	2.89535	
251.538	26.7648	2.86210	
255.607	26.3908	2.82922	
259.741	26.0005	2.79672	
263.942	25.5992	2.79482	
268.211	25.2100	2.80759	
272.549	24.8209	2.82042	
276.957	24.4150	2.83331	
281.437	24.0021	2.87205	
285.989	23.5894	2.91497	
290.615	23.1663	2.95854	
295.315	22.7135	3.00275	
300.092	22.2462	3.08284	
304.945	21.7739	3.16921	
309.878	21.2835	3.25799	
314.890	20.7645	3.34927	
319.983	20.2046	3.44310	
325.158	19.5557	3.53955	
330.418	18.8307	3.74168	
335.762	18.0955	4.01578	
341.192	17.2960	4.36634	
346.711	16.5177	4.84028	
352.319	15.7294	5.36568	
358.017	14.9454	6.02678	
363.808	14.1973	6.77229	
369.692	13.4888	7.58577	
375.672	12.7910	8.47388	
381.748	12.0779	9.48334	
387.922	11.4377	10.6580	
394.197	10.9324	11.9781	
400.573	10.5661	13.3610	
407.052	10.3194	14.8519	
413.635	10.2624	16.4588	
420.326	10.7157	18.0072	
427.124	11.1225	19.2218	
434.032	11.5054	20.5184	
441.052	12.1715	21.7418	
448.186	12.7374	22.6794	
455.435	13.2505	23.6574	
462.802	13.8303	24.6776	
470.287	14.5762	25.6178	
477.894	15.2317	26.3638	
485.623	15.8288	27.1314	
493.478	16.4208	27.9215	
501.459	17.0332	28.7345	
509.570	17.6861	29.5711	
517.812	18.4023	30.4322	
526.187	19.2982	31.3183	
534.698	20.3257	31.9799	
543.346	21.2352	32.4755	
552.134	22.0841	32.9787	
561.065	22.9243	33.4898	
570.139	23.7800	34.0088	
579.361	24.7516	34.5358	
588.732	25.7287	34.8784	
598.254	26.6408	35.1989	
607.930	27.5462	35.5223	
617.763	28.5160	35.8486	
627.755	29.6126	36.0451	
637.908	30.5504	35.9998	
648.226	31.3470	35.9546	
658.711	32.0087	35.9095	
669.365	32.5085	35.9817	
680.191	33.1119	36.2717	
691.193	33.8159	36.5641	
702.372	34.5943	36.8589	
713.733	35.5019	37.1560	
725.277	36.4549	37.2292	
737.008	37.3360	37.2373	
748.928	38.1547	37.2454	
761.042	38.9597	37.2536	
773.351	39.7891	37.2611	
785.859	40.6090	37.2116	
798.570	41.4147	37.1623	
811.486	42.2472	37.1130	
824.611	43.1805	36.9595	
837.949	44.0169	36.6430	
851.502	44.7238	36.3162	
865.274	45.3666	35.9784	
879.269	45.9323	35.6313	
893.491	46.4188	35.2876	
907.943	46.8046	34.9471	
922.628	46.9513	34.6098	
937.551	47.0935	34.7477	
952.715	47.3650	35.0086	
968.124	47.8655	35.3800	
983.783	48.5662	35.7551	
999.695	49.4897	36.0629	
1015.86	50.7351	36.2959	
1032.29	51.8667	35.8451	
1048.99	52.7803	35.3878	
1065.96	53.5486	34.9295	
1083.20	54.2395	34.4760	
1100.72	54.8724	34.0283	
1118.52	55.4595	33.5864	
1136.61	56.0075	33.1489	
1155.	56.5212	32.7169	
1173.68	57.0039	32.2902	
1192.66	57.4571	31.8683	
1211.95	57.8805	31.4516	
1231.55	58.2666	31.0398	
1251.47	58.6182	30.6610	
1271.72	58.9473	30.3175	
1292.29	59.2950	30.0155	
1313.19	59.6552	29.7150	
1334.43	60.0185	29.4173	
1356.01	60.3839	29.1225	
1377.94	60.7509	28.8293	
1400.23	61.1207	28.5386	
1422.88	61.4969	28.2506	
1445.89	61.8861	27.9642	
1469.28	62.3036	27.6625	
1493.04	62.7537	27.3367	
1517.19	63.1705	26.9020	
1541.73	63.5296	26.4584	
1566.67	63.8441	26.0215	
1592.01	64.1313	25.5904	
1617.76	64.3959	25.1661	
1643.92	64.6415	24.7484	
1670.51	64.8707	24.3369	
1697.53	65.0852	23.9319	
1724.99	65.2964	23.5333	
1752.89	65.4935	23.1220	
1781.24	65.6688	22.7112	
1810.05	65.8239	22.3023	
1839.32	65.9593	21.9000	
1869.07	66.0785	21.5047	
1899.30	66.1831	21.1163	
1930.02	66.2735	20.7340	
1961.24	66.3501	20.3583	
1992.96	66.4096	19.9889	
2025.20	66.4718	19.6373	
2057.95	66.5237	19.2680	
2091.24	66.5526	18.9019	
2125.06	66.5650	18.5402	
2159.43	66.5601	18.1819	
2194.36	66.5387	17.8286	
2229.85	66.4997	17.4785	
2265.92	66.4420	17.1327	
2302.57	66.3651	16.7915	
2339.81	66.2685	16.4546	
2377.66	66.1503	16.1213	
2416.11	66.0088	15.7926	
2455.19	65.8429	15.4680	
2494.90	65.6495	15.1470	
2535.26	65.4258	14.8306	
2576.26	65.1689	14.5184	
2617.93	64.8744	14.2107	
2660.27	64.5379	13.9078	
2703.30	64.1527	13.6082	
2747.03	63.7099	13.3130	
2791.46	63.1989	13.0221	
2836.61	62.6048	12.7354	
2882.49	61.9070	12.4527	
2929.11	61.0750	12.1740	
2976.48	60.0626	11.8996	
3024.63	58.7929	11.6293	
3073.55	57.1227	11.3630	
3123.26	54.7300	11.1005	
3173.78	50.5497	10.8419	
3218.90	18.9273	10.6195	
3219.10	18.9283	26.6901	
3225.11	39.9248	26.6132	
3277.27	50.4875	25.9599	
3330.28	51.3354	25.3260	
3370.10	32.7822	24.8664	
3370.30	32.7924	35.5979	
3384.15	50.2369	35.3752	
3438.88	57.4454	34.5167	
3494.50	60.7790	33.6814	
3551.02	63.0653	32.8693	
3608.46	64.7813	32.0769	
3666.82	66.0985	31.3042	
3726.13	67.0830	30.5520	
3786.40	67.7152	29.8169	
3847.64	67.7823	29.1024	
3908.90	59.2419	28.4156	
3909.10	59.2458	33.0886	
3909.87	62.4831	33.0787	
3973.11	69.7932	32.2807	
4037.38	71.6019	31.5030	
4102.68	72.8901	30.7446	
4169.03	73.9194	30.0047	
4236.46	74.7774	29.2841	
4304.98	75.5028	28.5799	
4374.62	76.1136	27.8941	
4445.37	76.6145	27.2255	
4517.27	76.9886	26.5736	
4590.33	77.1475	25.9364	
4655.90	74.4943	25.3859	
4656.10	74.4955	26.8664	
4664.58	76.6445	26.7960	
4740.03	78.1197	26.1838	
4816.69	78.7580	25.5873	
4894.60	79.1867	25.0064	
4973.77	79.3039	24.4380	
5001.90	77.8048	24.2412	
5002.10	77.8060	25.1673	
5054.21	79.9437	24.8079	
5135.96	80.6378	24.2616	
5219.03	81.1632	23.7233	
5303.44	81.6124	23.1931	
5389.22	82.0105	22.6710	
5476.39	82.3697	22.1577	
5564.97	82.6965	21.6527	
5654.98	82.9953	21.1564	
5746.44	83.2692	20.6687	
5839.39	83.5208	20.1898	
5933.83	83.7519	19.7194	
6029.81	83.9644	19.2577	
6127.33	84.1593	18.8046	
6226.44	84.3380	18.3604	
6327.15	84.5017	17.9248	
6429.48	84.6514	17.4979	
6533.48	84.7880	17.0794	
6639.15	84.9121	16.6693	
6746.54	85.0244	16.2678	
6855.65	85.1257	15.8747	
6966.54	85.2168	15.4902	
7079.22	85.2983	15.1135	
7193.72	85.3703	14.7450	
7310.07	85.4335	14.3845	
7428.31	85.4886	14.0323	
7548.45	85.5359	13.6874	
7670.54	85.5756	13.3507	
7794.61	85.6086	13.0214	
7920.68	85.6347	12.6994	
8048.79	85.6545	12.3851	
8178.98	85.6682	12.0778	
8311.26	85.6762	11.7781	
8445.69	85.6792	11.4854	
8582.29	85.6771	11.1993	
8721.11	85.6700	10.9201	
8862.16	85.6582	10.6474	
9005.50	85.6422	10.3817	
9151.16	85.6223	10.1218	
9299.17	85.5985	9.86891	
9449.58	85.5716	9.62176	
9602.42	85.5419	9.38093	
9757.73	85.5102	9.14603	
9915.55	85.4854	8.91641	
10075.9	85.4578	8.67087	
10238.9	85.4081	8.43204	
10404.5	85.3520	8.19981	
10572.8	85.2888	7.97408	
10743.8	85.2192	7.75475	
10917.6	85.1434	7.54171	
11094.2	85.0617	7.33486	
11273.6	84.9741	7.13407	
11455.9	84.8806	6.93925	
11641.2	84.7811	6.75028	
11829.5	84.6754	6.56703	
12020.8	84.5633	6.38940	
12215.3	84.4442	6.21726	
12412.8	84.3176	6.05052	
12613.6	84.1829	5.88904	
12817.6	84.0391	5.73273	
13025.0	83.8850	5.58145	
13235.6	83.7191	5.43509	
13449.7	83.5393	5.29356	
13667.2	83.3431	5.15672	
13888.3	83.1266	5.02447	
14112.9	82.8848	4.89670	
14341.2	82.6102	4.77329	
14573.1	82.2913	4.65415	
14808.9	81.9091	4.53916	
15048.4	81.4294	4.42822	
15291.8	80.7795	4.32122	
15539.1	79.7564	4.21807	
15790.4	77.1453	4.11865	
15870.9	64.5247	4.08765	
15871.1	64.5254	10.0440	
16045.8	78.7522	9.85468	
16305.4	80.4992	9.58369	
16569.1	81.3693	9.32016	
16837.1	81.9175	9.06388	
17109.4	82.2851	8.81466	
17386.1	82.5272	8.57229	
17667.4	82.6662	8.33659	
17953.1	82.7060	8.10738	
18243.5	82.6304	7.88447	
18538.6	82.3829	7.66770	
18838.4	81.7432	7.45689	
19083.1	74.3577	7.29152	
19083.3	74.3578	10.2918	
19143.1	80.4818	10.2449	
19452.7	82.1804	10.0079	
19767.4	82.2526	9.77636	
19839.9	79.6212	9.72425	
19840.1	79.6216	11.0444	
20087.1	83.3101	10.8520	
20412.0	84.0784	10.6075	
20742.1	84.6127	10.3664	
21077.6	85.0374	10.1289	
21418.5	85.3932	9.89502	
21765.0	85.6998	9.66483	
22117.0	85.9687	9.43841	
22474.7	86.2074	9.21577	
22838.2	86.4209	8.99695	
23207.6	86.6132	8.78198	
23583.0	86.7869	8.57088	
23964.4	86.9446	8.36366	
24352.0	87.0879	8.16031	
24745.9	87.2185	7.96085	
25146.2	87.3375	7.76526	
25552.9	87.4460	7.57354	
25966.2	87.5450	7.38566	
26386.1	87.6353	7.20160	
26812.9	87.7176	7.02134	
27246.6	87.7925	6.84485	
27687.3	87.8606	6.67210	
28135.1	87.9224	6.50304	
28590.2	87.9783	6.33766	
29052.6	88.0288	6.17589	
29522.5	88.0742	6.01770	
30000.0	88.1149	5.86306	
