E(eV)	f1	f2
10.0000	-9999.	8.78144	
10.1617	-9999.	8.87321	
10.3261	-9999.	8.96593	
10.4931	-9999.	9.04836	
10.6628	-9999.	9.08532	
10.8353	-9999.	9.12244	
11.0106	-9999.	9.15970	
11.1886	-9999.	9.19330	
11.3696	-9999.	9.15142	
11.5535	-9999.	9.10973	
11.7404	-9999.	9.06823	
11.9303	-9999.	9.02692	
12.1232	-9999.	8.98581	
12.3193	-9999.	8.94487	
12.5186	-9999.	8.90413	
12.7210	-9999.	8.86060	
12.9268	-9999.	8.81284	
13.1359	-9999.	8.76533	
13.3483	-9999.	8.71808	
13.5642	-9999.	8.67108	
13.7836	-9999.	8.62434	
14.0066	-9999.	8.57785	
14.2331	-9999.	8.53090	
14.4633	-9999.	8.48417	
14.6973	-9999.	8.43768	
14.9350	-9999.	8.39145	
15.1765	-9999.	8.34548	
15.4220	-9999.	8.29976	
15.6714	-9999.	8.25429	
15.9249	-9999.	8.20906	
16.1825	-9999.	8.16198	
16.4442	-9999.	8.11444	
16.7102	-9999.	8.06719	
16.9805	-9999.	8.02021	
17.2551	-9999.	7.97351	
17.5342	-9999.	7.92707	
17.8178	-9999.	7.87530	
18.1060	-9999.	7.77246	
18.3989	-9999.	7.67096	
18.6964	-9999.	7.57079	
18.9988	-9999.	7.47192	
19.3061	-9999.	7.37434	
19.6184	-9999.	7.27804	
19.9357	-9999.	7.12095	
20.2582	-9999.	6.95257	
20.5858	-9999.	6.78818	
20.9188	-9999.	6.62767	
21.2571	-9999.	6.46967	
21.6009	-9999.	6.25684	
21.9503	-9999.	6.05101	
22.3053	-9999.	5.85195	
22.6661	-9999.	5.65944	
23.0327	-9999.	5.47326	
23.4053	-9999.	5.29321	
23.7838	-9999.	5.09702	
24.1685	-9999.	4.86437	
24.5594	-9999.	4.64233	
24.9566	-9999.	4.43042	
25.3603	-9999.	4.22819	
25.7705	-9999.	4.03519	
26.1873	-9999.	3.85100	
26.6109	-9999.	3.61598	
27.0413	-9999.	3.36080	
27.4786	-9999.	3.12362	
27.9231	-9999.	2.90318	
28.3747	-9999.	2.69830	
28.8337	-9999.	2.54915	
29.3000	5.49962	2.43523	
29.7739	5.27913	2.32640	
30.2555	5.05622	2.25148	
30.7449	4.84579	2.18201	
31.2421	4.63754	2.11410	
31.7475	4.42351	2.04636	
32.2609	4.19951	1.98079	
32.7827	3.96287	1.92159	
33.3130	3.71232	1.86568	
33.8518	3.43123	1.81485	
34.3993	3.14421	1.82042	
34.9557	2.86521	1.82600	
35.5211	2.57343	1.83756	
36.0956	2.28104	1.87157	
36.6794	1.98418	1.90621	
37.2727	1.66379	1.94150	
37.8755	1.33234	2.02616	
38.4882	1.00725	2.11514	
39.1107	0.674212	2.20804	
39.7432	0.322010	2.31810	
40.3861	-0.340927E-01	2.44332	
41.0393	-0.407025	2.57531	
41.7031	-0.813161	2.72667	
42.3776	-1.22845	2.90695	
43.0630	-1.66735	3.09915	
43.7595	-2.16488	3.30550	
44.4673	-2.68641	3.63941	
45.1865	-3.18944	4.00704	
45.9174	-3.69481	4.41182	
46.6600	-4.22642	4.88002	
47.4147	-4.73564	5.42624	
48.1816	-5.22429	6.03359	
48.9609	-5.67958	6.70891	
49.7528	-6.09790	7.40624	
50.5576	-6.52062	8.15609	
51.3753	-6.92777	8.98187	
52.2062	-7.30629	9.89126	
53.0506	-7.64532	10.8951	
53.9087	-7.90647	12.0296	
54.7806	-8.01747	13.2822	
55.6667	-7.82666	14.6653	
56.5670	-7.47546	15.6298	
57.4820	-7.24516	16.5891	
58.4117	-7.01197	17.6072	
59.3564	-6.70400	18.6879	
60.3165	-6.26379	19.7160	
61.2921	-5.84568	20.7093	
62.2834	-5.38508	21.7526	
63.2908	-4.82824	22.8485	
64.3145	-4.06262	23.9808	
65.3547	-3.24069	24.8170	
66.4118	-2.45145	25.6823	
67.4859	-1.61431	26.5778	
68.5775	-0.600281	27.4743	
69.6867	0.421181	28.0817	
70.8138	1.38149	28.7026	
71.9591	2.33903	29.3372	
73.1230	3.34521	29.9858	
74.3057	4.46677	30.6042	
75.5076	5.59524	31.1541	
76.7289	6.76935	31.7138	
77.9699	8.06059	32.2836	
79.2310	9.61324	32.8636	
80.5125	11.4548	32.9161	
81.8147	12.9277	32.6485	
83.1380	14.2299	32.3831	
84.4827	15.4488	32.1155	
85.8491	16.6209	31.8486	
87.2377	17.7774	31.5839	
88.6487	18.9640	31.3214	
90.0825	20.3132	31.0611	
91.5395	21.6748	30.3481	
93.0201	22.7549	29.5469	
94.5246	23.6896	28.7669	
96.0535	24.5352	28.0075	
97.6071	25.3221	27.2681	
99.1858	26.0808	26.5483	
100.790	26.8830	25.8200	
102.420	27.5851	24.9127	
104.077	28.1711	24.0372	
105.760	28.6850	23.1926	
107.471	29.1645	22.3776	
109.209	29.6503	21.5912	
110.975	30.2792	20.7333	
112.770	30.6737	19.5574	
114.594	30.8537	18.4482	
116.448	30.8846	17.4020	
118.331	30.7869	16.4151	
120.245	30.4646	15.4841	
122.190	30.1578	14.9842	
124.166	29.9957	14.5113	
126.175	29.8880	14.0533	
128.215	29.8092	13.6097	
130.289	29.7505	13.1802	
132.397	29.7091	12.7642	
134.538	29.6874	12.3613	
136.714	29.6966	11.9712	
138.925	29.7900	11.5933	
141.172	29.8542	11.0062	
143.456	29.8260	10.4415	
145.776	29.7409	9.90586	
148.134	29.6328	9.39767	
150.530	29.5202	8.91553	
152.964	29.4531	8.45814	
155.439	29.3617	7.83226	
157.953	29.1431	7.21498	
160.507	28.8335	6.64635	
163.103	28.4666	6.12251	
165.742	28.0177	5.68111	
168.422	27.6008	5.33105	
171.146	27.2058	5.00258	
173.915	26.8070	4.69433	
176.727	26.4002	4.40277	
179.586	25.9758	4.12749	
182.491	25.5226	3.86942	
185.442	24.9913	3.67032	
188.442	24.5258	3.58621	
191.489	24.0995	3.50403	
194.587	23.6860	3.42373	
197.734	23.2604	3.34891	
200.932	22.8479	3.32075	
204.182	22.4488	3.29282	
207.485	22.0467	3.26513	
210.840	21.6259	3.26093	
214.251	21.2242	3.28454	
217.716	20.8280	3.30833	
221.237	20.4234	3.33229	
224.816	19.9830	3.37397	
228.452	19.5611	3.46177	
232.147	19.1472	3.55186	
235.902	18.7279	3.64429	
239.717	18.2865	3.74271	
243.595	17.8398	3.87411	
247.535	17.3860	4.01013	
251.538	16.9138	4.15092	
255.607	16.4088	4.29666	
259.741	15.8314	4.44751	
263.942	15.1353	4.70722	
268.211	14.5041	5.12724	
272.549	13.9158	5.58476	
276.957	13.3402	6.08308	
281.437	12.7759	6.63591	
285.989	12.2168	7.24017	
290.615	11.6290	7.89948	
295.315	11.0699	8.76865	
300.092	10.6326	9.75296	
304.945	10.4210	10.8477	
309.878	10.4563	11.7921	
314.890	10.4129	12.5719	
319.983	10.3487	13.4032	
325.158	10.3991	14.2617	
330.418	10.4353	15.0265	
335.762	10.4454	15.8322	
341.192	10.4813	16.6812	
346.711	10.5777	17.5683	
352.319	10.7235	18.4748	
358.017	10.9468	19.4282	
363.808	11.3809	20.3708	
369.692	11.7767	21.0935	
375.672	12.1389	21.8418	
381.748	12.5165	22.6166	
387.922	12.9458	23.4189	
394.197	13.5828	24.1665	
400.573	14.1469	24.7236	
407.052	14.6249	25.2936	
413.635	15.0986	25.8767	
420.326	15.5817	26.4732	
427.124	16.0870	27.0834	
434.032	16.7007	27.6758	
441.052	17.2814	28.1657	
448.186	17.8187	28.6644	
455.435	18.3566	29.1718	
462.802	18.9024	29.6883	
470.287	19.4631	30.2138	
477.894	20.0448	30.7487	
485.623	20.6543	31.2926	
493.478	21.2997	31.8462	
501.459	21.9936	32.4096	
509.570	22.7576	32.9830	
517.812	23.6683	33.5665	
526.187	24.6918	33.8865	
534.698	25.6081	34.0714	
543.346	26.4216	34.2573	
552.134	27.2100	34.4426	
561.065	27.9856	34.6279	
570.139	28.7610	34.8141	
579.361	29.5523	35.0014	
588.732	30.4166	35.1655	
598.254	31.2148	35.2113	
607.930	31.9885	35.2934	
617.763	32.7778	35.3744	
627.755	33.6099	35.4487	
637.908	34.4772	35.4480	
648.226	35.3418	35.3458	
658.711	36.1191	35.1771	
669.365	36.8442	35.0094	
680.191	37.5407	34.8310	
691.193	38.2129	34.6426	
702.372	38.8700	34.4358	
713.733	39.4986	34.1792	
725.277	40.0502	33.8896	
737.008	40.5326	33.6024	
748.928	40.9432	33.3174	
761.042	41.2448	33.0433	
773.351	41.3801	32.8619	
785.859	41.4377	32.9725	
798.570	41.7326	33.3278	
811.486	42.2143	33.6869	
824.611	42.8443	34.0497	
837.949	43.6805	34.4165	
851.502	44.7134	34.5665	
865.274	45.8313	34.4416	
879.269	46.7373	34.0727	
893.491	47.5042	33.7077	
907.943	48.2005	33.3466	
922.628	48.8578	32.9893	
937.551	49.4744	32.6073	
952.715	50.0505	32.2220	
968.124	50.5861	31.8346	
983.783	51.0901	31.4522	
999.695	51.5685	31.0722	
1015.86	52.0270	30.6946	
1032.29	52.4395	30.3008	
1048.99	52.8107	29.9430	
1065.96	53.1859	29.6232	
1083.20	53.5632	29.3064	
1100.72	53.9359	28.9925	
1118.52	54.3027	28.6816	
1136.61	54.6635	28.3735	
1155.	55.0191	28.0685	
1173.68	55.3710	27.7665	
1192.66	55.7205	27.4668	
1211.95	56.0711	27.1702	
1231.55	56.4336	26.8765	
1251.47	56.8078	26.5555	
1271.72	57.1829	26.2038	
1292.29	57.5158	25.8144	
1313.19	57.8145	25.4303	
1334.43	58.0911	25.0515	
1356.01	58.3500	24.6777	
1377.94	58.5936	24.3091	
1400.23	58.8242	23.9455	
1422.88	59.0437	23.5868	
1445.89	59.2546	23.2329	
1469.28	59.4614	22.8796	
1493.04	59.6655	22.5248	
1517.19	59.8514	22.1478	
1541.73	60.0135	21.7731	
1566.67	60.1556	21.4043	
1592.01	60.2820	21.0410	
1617.76	60.3944	20.6834	
1643.92	60.4935	20.3312	
1670.51	60.5802	19.9845	
1697.53	60.6552	19.6434	
1724.99	60.7277	19.3077	
1752.89	60.7871	18.9605	
1781.24	60.8260	18.6138	
1810.05	60.8455	18.2689	
1839.32	60.8453	17.9297	
1869.07	60.8277	17.5963	
1899.30	60.7931	17.2688	
1930.02	60.7413	16.9469	
1961.24	60.6718	16.6309	
1992.96	60.5815	16.3207	
2025.20	60.4858	16.0248	
2057.95	60.3721	15.7138	
2091.24	60.2280	15.4053	
2125.06	60.0572	15.1003	
2159.43	59.8574	14.7985	
2194.36	59.6265	14.5003	
2229.85	59.3603	14.2049	
2265.92	59.0545	13.9133	
2302.57	58.7040	13.6255	
2339.81	58.3022	13.3412	
2377.66	57.8406	13.0605	
2416.11	57.3065	12.7822	
2455.19	56.6838	12.5081	
2494.90	55.9517	12.2379	
2535.26	55.0777	11.9706	
2576.26	54.0126	11.7071	
2617.93	52.6751	11.4470	
2660.27	50.9144	11.1906	
2703.30	48.3944	10.9375	
2747.03	44.0472	10.6879	
2786.60	11.6247	10.4701	
2786.80	11.6296	27.3828	
2791.46	32.1753	27.3091	
2836.61	43.6129	26.6110	
2882.49	43.8762	25.9342	
2908.60	24.9818	25.5614	
2908.80	24.9946	37.1148	
2929.11	45.5963	36.7255	
2976.48	51.8626	35.8432	
3024.63	55.2297	34.9824	
3073.55	57.6117	34.1450	
3123.26	59.4357	33.3279	
3173.78	60.8715	32.5311	
3225.11	61.9952	31.7540	
3277.27	62.8277	30.9978	
3330.28	63.3155	30.2600	
3384.15	63.3226	29.5414	
3425.90	55.5262	29.0037	
3426.10	55.5393	33.6509	
3438.88	62.3990	33.4646	
3494.50	65.6704	32.6731	
3551.02	67.2840	31.9004	
3608.46	68.4765	31.1472	
3666.82	69.4405	30.4138	
3726.13	70.2425	29.6967	
3786.40	70.9105	28.9985	
3847.64	71.4515	28.3176	
3909.87	71.8407	27.6540	
3973.11	72.1859	27.0061	
4007.90	69.6976	26.6604	
4008.10	69.7062	28.1891	
4037.38	72.3479	27.8875	
4102.68	73.3463	27.2338	
4169.03	73.9560	26.5970	
4236.46	74.3595	25.9761	
4304.98	74.2630	25.3693	
4316.90	72.8024	25.2662	
4317.10	72.8036	26.2751	
4374.62	75.2216	25.8091	
4445.37	75.9083	25.2551	
4517.27	76.4509	24.7065	
4590.33	76.9216	24.1678	
4664.58	77.3433	23.6346	
4740.03	77.7251	23.1104	
4816.69	78.0747	22.5946	
4894.60	78.3962	22.0867	
4973.77	78.6920	21.5868	
5054.21	78.9646	21.0954	
5135.96	79.2161	20.6124	
5219.03	79.4482	20.1379	
5303.44	79.6621	19.6718	
5389.22	79.8591	19.2143	
5476.39	80.0403	18.7651	
5564.97	80.2067	18.3245	
5654.98	80.3591	17.8925	
5746.44	80.4985	17.4689	
5839.39	80.6255	17.0536	
5933.83	80.7407	16.6467	
6029.81	80.8449	16.2481	
6127.33	80.9387	15.8578	
6226.44	81.0225	15.4756	
6327.15	81.0970	15.1015	
6429.48	81.1625	14.7355	
6533.48	81.2196	14.3775	
6639.15	81.2687	14.0273	
6746.54	81.3102	13.6849	
6855.65	81.3445	13.3499	
6966.54	81.3717	13.0228	
7079.22	81.3927	12.7031	
7193.72	81.4074	12.3904	
7310.07	81.4159	12.0851	
7428.31	81.4188	11.7870	
7548.45	81.4163	11.4961	
7670.54	81.4087	11.2119	
7794.61	81.3961	10.9345	
7920.68	81.3788	10.6635	
8048.79	81.3566	10.3993	
8178.98	81.3301	10.1414	
8311.26	81.2994	9.88984	
8445.69	81.2645	9.64442	
8582.29	81.2255	9.40521	
8721.11	81.1829	9.17201	
8862.16	81.1366	8.94433	
9005.50	81.0864	8.72233	
9151.16	81.0327	8.50599	
9299.17	80.9756	8.29518	
9449.58	80.9152	8.08979	
9602.42	80.8523	7.88976	
9757.73	80.7874	7.69440	
9915.55	80.7245	7.50457	
10075.9	80.6591	7.29997	
10238.9	80.5761	7.10111	
10404.5	80.4845	6.90784	
10572.8	80.3845	6.72005	
10743.8	80.2763	6.53762	
10917.6	80.1597	6.36045	
11094.2	80.0344	6.18840	
11273.6	79.8995	6.02136	
11455.9	79.7543	5.85923	
11641.2	79.5975	5.70188	
11829.5	79.4275	5.54919	
12020.8	79.2421	5.40107	
12215.3	79.0385	5.25740	
12412.8	78.8129	5.11807	
12613.6	78.5598	4.98297	
12817.6	78.2716	4.85201	
13025.0	77.9362	4.72507	
13235.6	77.5346	4.60206	
13449.7	77.0323	4.48288	
13667.2	76.3585	4.36742	
13888.3	75.3248	4.25560	
14112.9	72.9881	4.14730	
14213.4	58.9552	4.10030	
14213.6	58.9560	10.5209	
14341.2	73.6127	10.3582	
14573.1	75.7472	10.0723	
14808.9	76.7353	9.79428	
15048.4	77.3385	9.52394	
15291.8	77.7295	9.26107	
15539.1	77.9706	9.00546	
15790.4	78.0824	8.75690	
16045.8	78.0566	8.51522	
16305.4	77.8385	8.28020	
16569.1	77.2116	8.05168	
16784.6	69.6774	7.87221	
16784.8	69.6782	11.0740	
16837.1	75.8949	11.0220	
17109.4	77.7424	10.7576	
17386.1	77.9924	10.4996	
17492.9	74.9652	10.4027	
17493.1	74.9656	11.8776	
17667.4	78.8223	11.7076	
17953.1	79.7395	11.4375	
18243.5	80.3500	11.1718	
18538.6	80.8299	10.9105	
18838.4	81.2298	10.6537	
19143.1	81.5733	10.4013	
19452.7	81.8739	10.1534	
19767.4	82.1402	9.91001	
20087.1	82.3781	9.67113	
20412.0	82.5921	9.43676	
20742.1	82.7852	9.20691	
21077.6	82.9604	8.98153	
21418.5	83.1194	8.76064	
21765.0	83.2642	8.54418	
22117.0	83.3961	8.33216	
22474.7	83.5164	8.12452	
22838.2	83.6261	7.92122	
23207.6	83.7262	7.72224	
23583.0	83.8174	7.52752	
23964.4	83.9004	7.33703	
24352.0	83.9760	7.15070	
24745.9	84.0446	6.96850	
25146.2	84.1067	6.79036	
25552.9	84.1629	6.61623	
25966.2	84.2135	6.44606	
26386.1	84.2590	6.27979	
26812.9	84.2997	6.11735	
27246.6	84.3359	5.95869	
27687.3	84.3679	5.80375	
28135.1	84.3961	5.65245	
28590.2	84.4205	5.50476	
29052.6	84.4416	5.36059	
29522.5	84.4595	5.21988	
30000.0	84.4744	5.08258	
