E(eV)	f1	f2
10.0000	-9999.	1.70333	
10.1617	-9999.	1.71802	
10.3261	-9999.	1.73284	
10.4931	-9999.	1.74778	
10.6628	-9999.	1.75737	
10.8353	-9999.	1.76678	
11.0105	-9999.	1.77624	
11.1886	-9999.	1.78574	
11.3696	-9999.	1.79530	
11.5535	-9999.	1.80306	
11.7404	-9999.	1.80629	
11.9303	-9999.	1.80952	
12.1232	-9999.	1.81276	
12.3193	-9999.	1.81600	
12.5186	-9999.	1.81871	
12.7210	-9999.	1.81609	
12.9268	-9999.	1.81347	
13.1359	-9999.	1.80922	
13.3483	-9999.	1.80410	
13.5642	-9999.	1.79747	
13.7836	-9999.	1.78729	
14.0066	-9999.	1.77705	
14.2331	-9999.	1.76267	
14.4633	-9999.	1.74841	
14.6972	-9999.	1.72956	
14.9350	-9999.	1.71004	
15.1765	-9999.	1.68541	
15.4220	-9999.	1.65917	
15.6714	-9999.	1.62778	
15.9249	-9999.	1.59448	
16.1825	-9999.	1.55788	
16.4442	-9999.	1.52050	
16.7102	-9999.	1.47675	
16.9805	-9999.	1.43237	
17.2551	-9999.	1.38176	
17.5342	-9999.	1.33102	
17.8178	-9999.	1.27265	
18.1060	-9999.	1.22588	
18.3988	-9999.	1.19605	
18.6964	-9999.	1.16961	
18.9988	-9999.	1.14509	
19.3061	2.30967	1.10518	
19.6184	2.31367	1.06950	
19.9357	2.31537	1.03964	
20.2581	2.31755	1.01722	
20.5858	2.32374	0.999039	
20.9187	2.34045	0.987135	
21.2571	2.37239	0.952742	
21.6009	2.38699	0.912693	
21.9503	2.39600	0.874329	
22.3053	2.40177	0.837576	
22.6661	2.40538	0.802368	
23.0327	2.40746	0.768641	
23.4052	2.40846	0.736331	
23.7838	2.40939	0.705380	
24.1685	2.41248	0.675729	
24.5594	2.41570	0.647325	
24.9566	2.42027	0.609275	
25.3602	2.41808	0.567900	
25.7704	2.40985	0.529334	
26.1872	2.39826	0.493388	
26.6108	2.38435	0.459883	
27.0412	2.36859	0.428653	
27.4786	2.35116	0.399544	
27.9230	2.33226	0.372411	
28.3747	2.30996	0.347121	
28.8336	2.28594	0.328404	
29.3000	2.26312	0.315229	
29.7739	2.24541	0.302582	
30.2554	2.22901	0.290443	
30.7448	2.21325	0.278791	
31.2421	2.19800	0.267606	
31.7474	2.18311	0.256870	
32.2609	2.16844	0.246565	
32.7827	2.15391	0.236673	
33.3129	2.13952	0.227178	
33.8517	2.12325	0.218064	
34.3992	2.10677	0.211374	
34.9556	2.09142	0.206573	
35.5210	2.07852	0.201882	
36.0955	2.06586	0.197297	
36.6793	2.05353	0.192816	
37.2726	2.04141	0.188437	
37.8754	2.02931	0.184157	
38.4880	2.01697	0.179975	
38.9000	2.00799	0.177252	
39.2000	2.00121	0.176713	
39.5000	1.99567	0.176983	
39.9000	1.98913	0.175827	
40.0000	1.98733	0.175565	
40.2760	1.98264	0.174663	
40.5560	1.97786	0.174609	
40.6970	1.97610	0.174013	
41.1270	1.96960	0.173456	
41.5660	1.96327	0.171435	
42.1670	1.95400	0.170039	
42.4730	1.94966	0.168799	
42.9420	1.94280	0.168198	
43.2600	1.93854	0.166905	
43.7460	1.93138	0.165791	
44.0760	1.92708	0.165390	
44.4110	1.92291	0.164383	
44.5810	1.92070	0.163618	
44.9240	1.91607	0.162962	
45.2720	1.91126	0.161326	
45.4480	1.90903	0.161038	
45.9850	1.90129	0.159149	
46.7288	1.89036	0.157516	
47.4846	1.87948	0.155990	
47.6740	1.87667	0.155621	
48.2650	1.86782	0.155028	
48.8710	1.85943	0.155666	
49.0760	1.85755	0.155951	
49.2830	1.85503	0.154508	
49.8930	1.84657	0.154198	
50.7000	1.83364	0.155814	
51.5200	1.82367	0.157447	
51.9010	1.81956	0.158203	
52.4010	1.81434	0.158683	
53.2485	1.80585	0.158768	
53.4010	1.80449	0.158784	
53.9000	1.79914	0.157647	
54.4010	1.79325	0.156933	
54.9010	1.78748	0.157035	
55.4000	1.78219	0.156125	
55.9010	1.77644	0.155633	
56.8052	1.76616	0.152967	
56.9010	1.76491	0.152689	
57.4010	1.75779	0.151560	
57.9010	1.75138	0.151256	
58.4000	1.74467	0.149795	
59.3446	1.73066	0.148143	
60.3044	1.71666	0.147555	
60.9010	1.70803	0.147236	
61.4010	1.70036	0.146656	
62.3941	1.68542	0.147197	
62.4010	1.68532	0.147201	
63.4000	1.67044	0.146706	
63.9020	1.66247	0.147388	
64.4000	1.65492	0.147185	
65.4010	1.63983	0.147806	
65.9010	1.63182	0.147426	
66.9669	1.61497	0.147801	
68.0500	1.59766	0.147747	
69.1507	1.57948	0.147404	
69.4010	1.57524	0.147327	
70.2340	1.56001	0.145950	
71.3700	1.53888	0.145981	
72.5243	1.51676	0.146011	
72.5670	1.51586	0.146012	
72.9000	1.50929	0.145632	
73.5680	1.49567	0.146079	
74.7579	1.47049	0.146106	
74.9000	1.46741	0.146109	
75.2350	1.46015	0.146426	
75.5670	1.45305	0.146447	
76.5680	1.43052	0.147310	
77.2350	1.41539	0.147639	
77.5670	1.40764	0.148124	
77.9010	1.40006	0.148179	
78.5670	1.38396	0.148938	
78.9000	1.37631	0.148969	
80.1761	1.34408	0.150222	
80.9000	1.32524	0.150928	
81.2340	1.31669	0.151099	
81.5680	1.30817	0.151573	
82.8873	1.27205	0.152380	
83.5680	1.25273	0.152793	
84.9010	1.21283	0.152919	
86.2742	1.16875	0.153088	
87.6696	1.12068	0.152944	
89.0876	1.06780	0.152717	
90.5285	1.00938	0.152457	
91.9928	0.944630	0.152189	
93.4807	0.872376	0.151920	
94.9926	0.791324	0.151867	
96.5291	0.699761	0.151828	
97.5670	0.631310	0.151801	
98.5680	0.560328	0.152508	
98.7770	0.544993	0.152245	
99.5260	0.486543	0.151861	
99.9010	0.455599	0.151904	
100.270	0.424344	0.151744	
100.660	0.389731	0.152054	
102.030	0.258588	0.151656	
102.400	0.219148	0.151818	
103.770	0.597848E-01	0.151969	
104.030	0.260858E-01	0.152169	
105.530	-0.191568	0.151371	
106.530	-0.368308	0.151676	
106.900	-0.441904	0.152246	
107.770	-0.637412	0.154099	
108.030	-0.702374	0.155662	
108.280	-0.768299	0.156220	
108.400	-0.802126	0.155741	
108.530	-0.840651	0.156004	
108.650	-0.876311	0.158215	
108.770	-0.912731	0.158122	
109.030	-0.997553	0.159793	
109.150	-1.03849	0.161052	
109.270	-1.08113	0.161306	
109.400	-1.12894	0.163454	
109.530	-1.17915	0.163557	
109.770	-1.27829	0.165902	
109.900	-1.33524	0.168057	
110.030	-1.39580	0.168777	
110.160	-1.45968	0.171253	
110.270	-1.51640	0.172992	
110.530	-1.66366	0.176080	
110.660	-1.74613	0.179584	
110.770	-1.81926	0.183052	
110.900	-1.91441	0.183759	
111.030	-2.01892	0.188659	
111.150	-2.12502	0.191441	
111.280	-2.25725	0.192239	
111.400	-2.40087	0.199075	
111.530	-2.58708	0.209517	
111.600	-2.70637	0.223326	
111.800	-3.21583	0.378238	
112.000	-3.42252	1.03860	
112.250	-3.41684	1.38190	
112.500	-3.59292	1.57501	
112.750	-3.95038	2.03965	
113.000	-3.99197	3.05986	
113.250	-3.32582	4.01793	
113.500	-2.38510	4.15418	
113.750	-1.77257	3.84564	
114.000	-1.49267	3.56793	
114.250	-1.40646	3.26353	
114.500	-1.45558	3.11127	
114.750	-1.51462	3.06546	
115.000	-1.58085	3.03372	
115.500	-1.68141	3.14487	
115.750	-1.68766	3.23324	
116.000	-1.67443	3.28469	
116.250	-1.69668	3.30771	
116.500	-1.74476	3.36223	
116.750	-1.84100	3.42546	
117.000	-1.91971	3.58866	
117.250	-2.01798	3.75177	
117.500	-2.09181	4.02099	
117.750	-1.98599	4.48576	
118.000	-1.69069	4.69519	
118.250	-1.41511	4.80543	
118.500	-1.17170	4.79021	
118.750	-1.03307	4.76242	
119.000	-0.919695	4.72326	
119.250	-0.899806	4.70943	
119.500	-0.833607	4.73952	
120.500	-0.607801	5.01171	
121.000	-0.546931	4.97342	
121.500	-0.418154	5.37885	
122.000	-0.951663E-01	5.50733	
122.500	0.195563	5.47638	
123.000	0.287270	5.41101	
123.500	0.285511	5.46448	
124.000	0.326778	5.80078	
125.000	0.899833	6.30269	
125.500	1.34102	6.64803	
126.000	1.95659	6.68559	
126.500	2.54905	6.64790	
127.000	3.16414	6.40082	
127.500	3.67151	6.01367	
128.000	3.96394	5.39328	
128.500	4.07172	5.00813	
129.000	4.14772	4.55903	
129.500	4.13409	4.20865	
130.000	4.07072	3.82730	
130.500	3.96867	3.59578	
131.000	3.81583	3.26529	
131.500	3.62226	3.15721	
132.000	3.45638	3.02786	
133.000	3.17671	2.92660	
133.500	3.07605	2.93560	
134.000	3.00843	2.93684	
134.500	2.96221	2.94578	
135.500	2.89396	2.93779	
136.000	2.87584	2.94397	
136.500	2.86874	2.93959	
137.500	2.85627	2.89893	
138.000	2.83336	2.87398	
138.500	2.81506	2.87098	
139.000	2.79734	2.84887	
140.000	2.73715	2.83539	
141.000	2.69982	2.87711	
141.500	2.70638	2.90329	
142.000	2.71550	2.90287	
142.500	2.72019	2.91465	
143.000	2.72987	2.91685	
143.500	2.74333	2.92650	
144.000	2.75592	2.91495	
144.500	2.76383	2.91585	
145.000	2.76841	2.90262	
145.500	2.77007	2.90346	
146.000	2.76964	2.89577	
146.500	2.76561	2.89537	
148.000	2.76343	2.93154	
148.500	2.77483	2.94822	
149.000	2.78740	2.95243	
150.000	2.81919	2.98597	
151.000	2.85322	2.98029	
152.000	2.86818	2.98203	
153.000	2.89266	3.01367	
153.500	2.89847	3.01671	
155.000	2.93623	3.06074	
155.500	2.96092	3.08803	
156.500	3.01251	3.12840	
157.000	3.04430	3.14926	
157.500	3.08675	3.17679	
158.000	3.13492	3.18715	
159.000	3.22830	3.19053	
160.000	3.32359	3.19716	
160.500	3.37652	3.19224	
161.500	3.48313	3.16079	
162.000	3.53440	3.15119	
163.000	3.64004	3.07868	
164.500	3.74596	2.93822	
165.500	3.78278	2.85215	
166.000	3.79484	2.81725	
167.000	3.82135	2.73264	
167.500	3.82362	2.69680	
168.000	3.81959	2.65488	
169.500	3.80124	2.57094	
170.000	3.79268	2.55180	
170.500	3.78838	2.54214	
171.000	3.78748	2.52605	
171.500	3.78804	2.51896	
172.990	3.80814	2.47360	
173.990	3.80347	2.43390	
174.500	3.81339	2.43394	
175.510	3.82900	2.40213	
176.000	3.83339	2.38083	
176.500	3.83871	2.36562	
177.510	3.85216	2.32073	
178.000	3.84430	2.28306	
178.500	3.84361	2.27434	
180.000	3.79942	2.22984	
181.000	3.78489	2.22505	
181.510	3.78464	2.22872	
182.000	3.77923	2.21064	
183.500	3.77455	2.19974	
184.490	3.77588	2.18992	
187.474	3.78737	2.16785	
187.500	3.78737	2.16766	
188.000	3.77910	2.15580	
188.500	3.77675	2.16037	
189.000	3.77711	2.15869	
190.000	3.78555	2.16413	
190.500	3.79166	2.15995	
191.000	3.79603	2.16059	
192.000	3.80715	2.14936	
193.510	3.82898	2.14231	
194.000	3.83942	2.13531	
194.500	3.84007	2.11653	
195.000	3.83469	2.11378	
195.500	3.83653	2.11602	
196.500	3.84812	2.10677	
197.500	3.85281	2.09245	
199.010	3.86036	2.09404	
200.000	3.87172	2.08193	
201.500	3.88191	2.07385	
203.000	3.89450	2.07146	
204.500	3.92105	2.06855	
207.000	3.96780	2.04405	
207.500	3.97172	2.03179	
208.010	3.97628	2.03019	
208.500	3.97935	2.02063	
210.500	4.00635	2.00156	
212.000	4.02425	1.97791	
212.500	4.02760	1.97716	
213.000	4.03863	1.96995	
213.500	4.04264	1.95601	
214.500	4.04244	1.94417	
215.000	4.04818	1.94719	
215.500	4.05146	1.93625	
217.000	4.07177	1.91827	
218.000	4.07937	1.90175	
219.000	4.08572	1.89162	
220.000	4.09161	1.87778	
220.500	4.09066	1.87308	
221.000	4.09659	1.87799	
221.500	4.10445	1.86891	
222.000	4.11052	1.86480	
222.500	4.11500	1.85638	
223.000	4.12075	1.85152	
223.500	4.12176	1.84131	
224.000	4.12134	1.83756	
224.500	4.12348	1.84253	
226.000	4.15704	1.82599	
226.490	4.16101	1.81782	
227.500	4.17850	1.80946	
228.000	4.19190	1.79537	
228.500	4.19439	1.77053	
229.000	4.19072	1.76739	
229.500	4.19374	1.75778	
230.500	4.19691	1.74263	
231.000	4.20734	1.73860	
231.500	4.21071	1.72476	
232.000	4.21210	1.70717	
234.500	4.21500	1.66650	
235.000	4.20480	1.65173	
235.500	4.20096	1.64949	
236.500	4.20132	1.65027	
237.500	4.20371	1.63115	
238.000	4.20288	1.62857	
238.500	4.20322	1.62029	
239.500	4.20097	1.61693	
240.000	4.20624	1.61172	
240.500	4.20812	1.60246	
241.000	4.21110	1.59846	
241.500	4.20782	1.58125	
242.000	4.19755	1.57866	
242.500	4.19930	1.58572	
243.500	4.21118	1.57948	
244.000	4.20763	1.56140	
244.500	4.20246	1.56099	
245.000	4.19678	1.55568	
246.000	4.19512	1.55713	
246.500	4.19511	1.55644	
247.500	4.19613	1.55114	
248.500	4.18859	1.55086	
248.990	4.19626	1.56821	
249.500	4.21213	1.56785	
250.000	4.22653	1.55043	
251.540	4.26661	1.54085	
255.608	4.25156	1.50042	
259.743	4.26764	1.46106	
263.944	4.28045	1.42272	
268.213	4.29117	1.38539	
272.551	4.30032	1.34904	
276.959	4.30821	1.31364	
281.439	4.31501	1.27917	
285.991	4.32087	1.24561	
290.617	4.32588	1.21293	
295.317	4.33013	1.18110	
300.094	4.33368	1.15011	
304.947	4.33653	1.11993	
309.880	4.33874	1.09055	
314.892	4.34029	1.06193	
319.985	4.34126	1.03488	
325.160	4.34227	1.00851	
330.420	4.34307	0.982821	
335.764	4.34364	0.957781	
341.195	4.34399	0.933380	
346.713	4.34413	0.909600	
352.321	4.34408	0.886427	
358.020	4.34387	0.863843	
363.810	4.34352	0.841835	
369.695	4.34307	0.820388	
375.674	4.34247	0.799486	
381.750	4.34234	0.779118	
387.925	4.34238	0.759267	
394.199	4.34228	0.738576	
400.575	4.34177	0.718448	
407.054	4.34059	0.697922	
413.638	4.33897	0.677984	
420.328	4.33688	0.658616	
427.126	4.33438	0.639799	
434.035	4.33165	0.621521	
441.055	4.32870	0.603766	
448.189	4.32557	0.586516	
455.438	4.32228	0.569761	
462.804	4.31886	0.553484	
470.290	4.31532	0.537671	
477.896	4.31169	0.522311	
485.626	4.30798	0.507390	
493.480	4.30421	0.492894	
501.462	4.30038	0.478813	
509.573	4.29651	0.465133	
517.815	4.29262	0.451845	
526.190	4.28871	0.438937	
534.701	4.28480	0.426397	
543.349	4.28091	0.414215	
552.137	4.27707	0.402382	
561.068	4.27342	0.390887	
570.142	4.26964	0.379297	
579.364	4.26575	0.368051	
588.735	4.26181	0.357139	
598.257	4.25782	0.346550	
607.933	4.25382	0.336275	
617.766	4.24986	0.326305	
627.758	4.24601	0.316630	
637.912	4.24229	0.307242	
648.229	4.23849	0.297321	
658.714	4.23444	0.287720	
669.368	4.22972	0.278430	
680.195	4.22459	0.270148	
691.196	4.22029	0.262802	
702.376	4.21661	0.255654	
713.736	4.21310	0.247975	
725.280	4.20947	0.240525	
737.011	4.20574	0.233102	
748.932	4.20199	0.225907	
761.045	4.19823	0.218934	
773.354	4.19446	0.212177	
785.863	4.19072	0.205628	
798.573	4.18700	0.199281	
811.490	4.18331	0.193131	
824.615	4.17967	0.187170	
837.952	4.17606	0.181392	
851.505	4.17249	0.175794	
865.278	4.16897	0.170368	
879.273	4.16547	0.165110	
893.495	4.16203	0.160057	
907.946	4.15866	0.155160	
922.631	4.15540	0.150411	
937.554	4.15220	0.145809	
952.719	4.14905	0.141250	
968.128	4.14591	0.136834	
983.787	4.14280	0.132557	
999.699	4.13974	0.128412	
1015.87	4.13672	0.124398	
1032.30	4.13375	0.120509	
1049.	4.13082	0.116741	
1065.96	4.12794	0.113091	
1083.20	4.12511	0.109556	
1100.72	4.12233	0.106131	
1118.53	4.11960	0.102813	
1136.62	4.11692	0.995984E-01
1155.	4.11429	0.964847E-01
1173.68	4.11170	0.934681E-01
1192.67	4.10917	0.905461E-01
1211.96	4.10668	0.877153E-01
1231.56	4.10424	0.849730E-01
1251.48	4.10185	0.823165E-01
1271.72	4.09951	0.797430E-01
1292.29	4.09722	0.772499E-01
1313.19	4.09497	0.748349E-01
1334.43	4.09277	0.724952E-01
1356.01	4.09061	0.702288E-01
1377.95	4.08851	0.680301E-01
1400.23	4.08644	0.659001E-01
1422.88	4.08442	0.638369E-01
1445.90	4.08245	0.618382E-01
1469.28	4.08052	0.599022E-01
1493.05	4.07864	0.580268E-01
1517.20	4.07683	0.562100E-01
1541.73	4.07504	0.543948E-01
1566.67	4.07327	0.526382E-01
1592.01	4.07153	0.509382E-01
1617.76	4.06982	0.492933E-01
1643.93	4.06814	0.477014E-01
1670.52	4.06650	0.461609E-01
1697.53	4.06489	0.446702E-01
1724.99	4.06331	0.432276E-01
1752.89	4.06176	0.418316E-01
1781.24	4.06025	0.404807E-01
1810.05	4.05877	0.391734E-01
1839.33	4.05733	0.379083E-01
1869.08	4.05592	0.366841E-01
1899.31	4.05453	0.354994E-01
1930.03	4.05319	0.343530E-01
1961.25	4.05187	0.332436E-01
1992.97	4.05059	0.321700E-01
2025.20	4.04935	0.311311E-01
2057.96	4.04813	0.300957E-01
2091.24	4.04693	0.290947E-01
2125.07	4.04575	0.281270E-01
2159.44	4.04460	0.271914E-01
2194.37	4.04346	0.262870E-01
2229.86	4.04236	0.254127E-01
2265.93	4.04127	0.245675E-01
2302.57	4.04021	0.237503E-01
2339.82	4.03918	0.229604E-01
2377.66	4.03817	0.221967E-01
2416.12	4.03718	0.214584E-01
2455.20	4.03621	0.207447E-01
2494.91	4.03527	0.200547E-01
2535.26	4.03435	0.193877E-01
2576.27	4.03345	0.187429E-01
2617.94	4.03257	0.181195E-01
2660.28	4.03171	0.175168E-01
2703.31	4.03088	0.169342E-01
2747.03	4.03006	0.163709E-01
2791.46	4.02926	0.158264E-01
2836.61	4.02849	0.153000E-01
2882.49	4.02773	0.147911E-01
2929.11	4.02700	0.142992E-01
2976.49	4.02628	0.138236E-01
3024.63	4.02559	0.133638E-01
3073.55	4.02491	0.129072E-01
3123.26	4.02424	0.124663E-01
3173.78	4.02359	0.120403E-01
3225.11	4.02295	0.116290E-01
3277.28	4.02233	0.112317E-01
3330.29	4.02172	0.108480E-01
3384.15	4.02113	0.104774E-01
3438.89	4.02055	0.101194E-01
3494.51	4.01998	0.977365E-02
3551.03	4.01943	0.943974E-02
3608.46	4.01890	0.911724E-02
3666.83	4.01837	0.880575E-02
3726.13	4.01786	0.850491E-02
3786.40	4.01736	0.821432E-02
3847.64	4.01688	0.793369E-02
3909.88	4.01641	0.766264E-02
3973.12	4.01595	0.740085E-02
4037.38	4.01550	0.714801E-02
4102.68	4.01506	0.690380E-02
4169.04	4.01464	0.666401E-02
4236.47	4.01423	0.643256E-02
4304.99	4.01382	0.620915E-02
4374.62	4.01343	0.599350E-02
4445.37	4.01304	0.578535E-02
4517.27	4.01267	0.558442E-02
4590.34	4.01230	0.539045E-02
4664.58	4.01195	0.520323E-02
4740.03	4.01160	0.502252E-02
4816.70	4.01126	0.484809E-02
4894.60	4.01093	0.467971E-02
4973.77	4.01061	0.451716E-02
5054.21	4.01030	0.436028E-02
5135.96	4.01000	0.420884E-02
5219.03	4.00970	0.406267E-02
5303.45	4.00941	0.391977E-02
5389.23	4.00913	0.378191E-02
5476.39	4.00886	0.364888E-02
5564.97	4.00860	0.352054E-02
5654.98	4.00834	0.339671E-02
5746.44	4.00808	0.327724E-02
5839.39	4.00784	0.316197E-02
5933.83	4.00760	0.305075E-02
6029.81	4.00737	0.294344E-02
6127.33	4.00714	0.283992E-02
6226.44	4.00692	0.274003E-02
6327.15	4.00671	0.264365E-02
6429.48	4.00650	0.254975E-02
6533.48	4.00630	0.245918E-02
6639.15	4.00610	0.237183E-02
6746.53	4.00591	0.228759E-02
6855.65	4.00572	0.220633E-02
6966.54	4.00554	0.212796E-02
7079.21	4.00536	0.205238E-02
7193.71	4.00519	0.197947E-02
7310.07	4.00502	0.190916E-02
7428.30	4.00485	0.184135E-02
7548.45	4.00469	0.177595E-02
7670.54	4.00454	0.171287E-02
7794.60	4.00439	0.165202E-02
7920.68	4.00424	0.159334E-02
8048.79	4.00410	0.153675E-02
8178.97	4.00396	0.148216E-02
8311.26	4.00383	0.142952E-02
8445.68	4.00370	0.137819E-02
8582.29	4.00357	0.132870E-02
8721.10	4.00345	0.128099E-02
8862.16	4.00333	0.123499E-02
9005.49	4.00321	0.119064E-02
9151.15	4.00310	0.114789E-02
9299.16	4.00299	0.110667E-02
9449.57	4.00288	0.106693E-02
9602.41	4.00277	0.102862E-02
9757.72	4.00267	0.991686E-03
9915.54	4.00257	0.956077E-03
10075.9	4.00248	0.921746E-03
10238.9	4.00238	0.888646E-03
10404.5	4.00229	0.856737E-03
10572.8	4.00221	0.825973E-03
10743.8	4.00212	0.796314E-03
10917.6	4.00204	0.767721E-03
11094.1	4.00196	0.740154E-03
11273.6	4.00188	0.713574E-03
11455.9	4.00180	0.687952E-03
11641.2	4.00173	0.663249E-03
11829.5	4.00165	0.639433E-03
12020.8	4.00158	0.616473E-03
12215.3	4.00152	0.594337E-03
12412.8	4.00145	0.572994E-03
12613.6	4.00139	0.552174E-03
12817.6	4.00132	0.532111E-03
13024.9	4.00126	0.512776E-03
13235.6	4.00120	0.494145E-03
13449.7	4.00115	0.476188E-03
13667.2	4.00109	0.458886E-03
13888.3	4.00104	0.442212E-03
14112.9	4.00098	0.426144E-03
14341.2	4.00093	0.410660E-03
14573.1	4.00088	0.395739E-03
14808.8	4.00083	0.381358E-03
15048.3	4.00079	0.367502E-03
15291.7	4.00074	0.354148E-03
15539.1	4.00070	0.341280E-03
15790.4	4.00065	0.328880E-03
16045.8	4.00061	0.316929E-03
16305.3	4.00057	0.305413E-03
16569.1	4.00053	0.294207E-03
16837.0	4.00049	0.283413E-03
17109.4	4.00046	0.273015E-03
17386.1	4.00042	0.262998E-03
17667.3	4.00039	0.253348E-03
17953.1	4.00035	0.244052E-03
18243.4	4.00032	0.235098E-03
18538.5	4.00029	0.226472E-03
18838.4	4.00026	0.218163E-03
19143.0	4.00023	0.210159E-03
19452.7	4.00020	0.202447E-03
19767.3	4.00017	0.195019E-03
20087.0	4.00014	0.187864E-03
20411.9	4.00011	0.180971E-03
20742.1	4.00009	0.174332E-03
21077.5	4.00006	0.167935E-03
21418.5	4.00004	0.161773E-03
21764.9	4.00001	0.155838E-03
22116.9	3.99999	0.150120E-03
22474.6	3.99997	0.144612E-03
22838.1	3.99995	0.139307E-03
23207.5	3.99992	0.134195E-03
23582.9	3.99990	0.129271E-03
23964.3	3.99988	0.124528E-03
24351.9	3.99986	0.119959E-03
24745.8	3.99985	0.115558E-03
25146.1	3.99983	0.111318E-03
25552.8	3.99981	0.107234E-03
25966.1	3.99979	0.103299E-03
26386.0	3.99978	0.995092E-04
26812.8	3.99976	0.958583E-04
27246.5	3.99974	0.923412E-04
27687.2	3.99973	0.889532E-04
28135.0	3.99971	0.856893E-04
28590.1	3.99970	0.825453E-04
29052.5	3.99969	0.795168E-04
29522.4	3.99967	0.765993E-04
29999.9	3.99966	0.737888E-04
30000.0	3.99966	0.737882E-04
