E(eV)	f1	f2
10.0000	-9999.	1.37852	
10.1617	-9999.	1.42961	
10.3261	-9999.	1.48259	
10.4931	-9999.	1.53754	
10.6628	-9999.	1.59453	
10.8353	-9999.	1.65362	
11.0106	-9999.	1.71491	
11.1886	-9999.	1.77847	
11.3696	-9999.	1.84438	
11.5535	-9999.	1.91274	
11.7404	-9999.	1.97402	
11.9303	-9999.	2.01044	
12.1232	-9999.	2.04752	
12.3193	-9999.	2.08529	
12.5186	-9999.	2.12375	
12.7210	-9999.	2.16292	
12.9268	-9999.	2.20282	
13.1359	-9999.	2.24345	
13.3483	-9999.	2.28484	
13.5642	-9999.	2.32698	
13.7836	-9999.	2.36990	
14.0066	-9999.	2.41362	
14.2331	-9999.	2.45814	
14.4633	-9999.	2.50348	
14.6973	-9999.	2.54966	
14.9350	-9999.	2.59669	
15.1765	-9999.	2.64458	
15.4220	-9999.	2.69337	
15.6714	-9999.	2.73188	
15.9249	-9999.	2.75688	
16.1825	-9999.	2.78211	
16.4442	-9999.	2.80756	
16.7102	-9999.	2.83325	
16.9805	-9999.	2.85918	
17.2551	-9999.	2.88534	
17.5342	-9999.	2.91174	
17.8178	-9999.	2.93838	
18.1060	-9999.	2.96261	
18.3989	-9999.	2.97951	
18.6964	-9999.	2.99650	
18.9988	-9999.	3.01359	
19.3061	-9999.	3.03078	
19.6184	-9999.	3.04806	
19.9357	-9999.	3.06544	
20.2582	-9999.	3.08293	
20.5858	-9999.	3.10051	
20.9188	-9999.	3.11819	
21.2571	-9999.	3.13597	
21.6009	-9999.	3.15386	
21.9503	-9999.	3.17184	
22.3053	-9999.	3.18993	
22.6661	-9999.	3.19901	
23.0327	-9999.	3.20529	
23.4053	-9999.	3.21159	
23.7838	-9999.	3.21789	
24.1685	-9999.	3.22421	
24.5594	-9999.	3.23054	
24.9566	-9999.	3.23689	
25.3603	-9999.	3.24324	
25.7705	-9999.	3.24961	
26.1873	-9999.	3.25599	
26.6109	-9999.	3.26239	
27.0413	-9999.	3.26879	
27.4786	-9999.	3.27521	
27.9231	-9999.	3.28164	
28.3747	-9999.	3.28184	
28.8337	-9999.	3.26361	
29.3000	4.56551	3.24547	
29.7739	4.59674	3.22745	
30.2555	4.62389	3.20951	
30.7449	4.64752	3.19168	
31.2421	4.66794	3.17395	
31.7475	4.68534	3.15632	
32.2609	4.69985	3.13878	
32.7827	4.71157	3.12135	
33.3130	4.72056	3.10401	
33.8518	4.72726	3.08676	
34.3993	4.73253	3.06821	
34.9557	4.73284	3.04783	
35.5211	4.72873	3.02759	
36.0956	4.72057	3.00747	
36.6794	4.70833	2.98750	
37.2727	4.69185	2.96765	
37.8755	4.67095	2.94794	
38.4882	4.64540	2.92835	
39.1107	4.61496	2.90891	
39.7432	4.57945	2.88958	
40.3861	4.53898	2.87039	
41.0393	4.49519	2.85002	
41.7031	4.44170	2.82162	
42.3776	4.37564	2.79349	
43.0630	4.29742	2.76565	
43.7595	4.20634	2.73809	
44.4673	4.10080	2.71079	
45.1865	3.97865	2.68377	
45.9174	3.83697	2.65703	
46.6600	3.67191	2.63054	
47.4147	3.47817	2.60433	
48.1816	3.24835	2.57837	
48.9609	2.97172	2.55267	
49.7528	2.63237	2.52664	
50.5576	2.19808	2.49588	
51.3753	1.60564	2.46550	
52.2062	0.746053	2.49950	
53.0506	-0.823081	2.57469	
53.9087	-3.48492	4.80517	
54.7806	-2.28294	9.28509	
55.6667	-0.253217	9.98238	
56.5670	1.29776	10.4549	
57.4820	2.40276	10.7076	
58.4117	3.54172	10.9275	
59.3564	4.53869	10.6850	
60.3165	5.32958	10.4478	
61.2921	6.03752	10.1122	
62.2834	6.55392	9.71669	
63.2908	6.93943	9.33663	
64.3145	7.23531	8.97142	
65.3547	7.45267	8.62050	
66.4118	7.58608	8.28332	
67.4859	7.58843	7.97015	
68.5775	7.59044	7.86267	
69.6867	7.64565	7.75663	
70.8138	7.70968	7.65203	
71.9591	7.76921	7.54883	
73.1230	7.81595	7.44703	
74.3057	7.83798	7.34660	
75.5076	7.79781	7.28864	
76.7289	7.80545	7.30616	
77.9699	7.84188	7.32372	
79.2310	7.89300	7.34133	
80.5125	7.95279	7.35898	
81.8147	8.01851	7.37667	
83.1380	8.08850	7.39440	
84.4827	8.16154	7.41218	
85.8491	8.23668	7.43000	
87.2377	8.31282	7.44786	
88.6487	8.38740	7.46624	
90.0825	8.46471	7.49275	
91.5395	8.54659	7.51936	
93.0201	8.63178	7.54607	
94.5246	8.71938	7.57286	
96.0535	8.80911	7.59976	
97.6071	8.90086	7.62675	
99.1858	8.99454	7.65383	
100.790	9.09017	7.68101	
102.420	9.18782	7.70829	
104.077	9.28776	7.73567	
105.760	9.39101	7.76314	
107.471	9.49649	7.78722	
109.209	9.60195	7.81049	
110.975	9.70842	7.83383	
112.770	9.81640	7.85724	
114.594	9.92628	7.88073	
116.448	10.0384	7.90428	
118.331	10.1533	7.92791	
120.245	10.2717	7.95160	
122.190	10.3951	7.97537	
124.166	10.5280	7.99921	
126.175	10.6739	8.00625	
128.215	10.8068	7.99853	
130.289	10.9332	7.99083	
132.397	11.0565	7.98313	
134.538	11.1781	7.97544	
136.714	11.2989	7.96776	
138.925	11.4196	7.96008	
141.172	11.5409	7.95241	
143.456	11.6638	7.94475	
145.776	11.7907	7.93710	
148.134	11.9278	7.92106	
150.530	12.0547	7.89217	
152.964	12.1758	7.86339	
155.439	12.2937	7.83471	
157.953	12.4094	7.80615	
160.507	12.5237	7.77768	
163.103	12.6369	7.74932	
165.742	12.7495	7.72106	
168.422	12.8619	7.69290	
171.146	12.9745	7.66485	
173.915	13.0877	7.63690	
176.727	13.2020	7.60905	
179.586	13.3183	7.58130	
182.491	13.4377	7.55366	
185.442	13.5621	7.52611	
188.442	13.6963	7.49867	
191.489	13.8601	7.46087	
194.587	14.0038	7.36866	
197.734	14.1251	7.27760	
200.932	14.2321	7.18766	
204.182	14.3296	7.09884	
207.485	14.4192	7.01111	
210.840	14.5017	6.92446	
214.251	14.5772	6.83889	
217.716	14.6454	6.75437	
221.237	14.7045	6.67090	
224.816	14.7449	6.58963	
228.452	14.7884	6.54414	
232.147	14.8416	6.49896	
235.902	14.9009	6.45410	
239.717	14.9627	6.40954	
243.595	15.0264	6.36529	
247.535	15.0917	6.32135	
251.538	15.1585	6.27771	
255.607	15.2269	6.23437	
259.741	15.2972	6.19133	
263.942	15.3702	6.14859	
268.211	15.4469	6.10615	
272.549	15.5294	6.06399	
276.957	15.6410	6.01084	
281.437	15.7338	5.92255	
285.989	15.8063	5.83556	
290.615	15.8710	5.74984	
295.315	15.9298	5.66539	
300.092	15.9839	5.58217	
304.945	16.0341	5.50018	
309.878	16.0811	5.41940	
314.890	16.1256	5.33979	
319.983	16.1683	5.26136	
325.158	16.2101	5.18408	
330.418	16.2525	5.10794	
335.762	16.3098	5.03291	
341.192	16.3581	4.92380	
346.711	16.3869	4.81616	
352.319	16.4048	4.71086	
358.017	16.4142	4.60787	
363.808	16.4160	4.50713	
369.692	16.4107	4.40859	
375.672	16.3980	4.31221	
381.748	16.3707	4.21793	
387.922	16.3387	4.14490	
394.197	16.3170	4.07954	
400.573	16.3037	4.00915	
407.052	16.2822	3.92917	
413.635	16.2534	3.85080	
420.326	16.2191	3.77398	
427.124	16.1797	3.69870	
434.032	16.1354	3.62491	
441.052	16.0859	3.55260	
448.186	16.0312	3.48174	
455.435	15.9711	3.41228	
462.802	15.9052	3.34421	
470.287	15.8333	3.27750	
477.894	15.7550	3.21212	
485.623	15.6698	3.14804	
493.478	15.5777	3.08503	
501.459	15.4771	3.02269	
509.570	15.3672	2.96160	
517.812	15.2475	2.90175	
526.187	15.1169	2.84310	
534.698	14.9742	2.78564	
543.346	14.8181	2.72935	
552.134	14.6466	2.67418	
561.065	14.4577	2.62014	
570.139	14.2486	2.56719	
579.361	14.0158	2.51530	
588.732	13.7542	2.46447	
598.254	13.4583	2.41999	
607.930	13.1273	2.37973	
617.763	12.7523	2.34017	
627.755	12.3194	2.30104	
637.908	11.8093	2.25957	
648.226	11.1915	2.21452	
658.711	10.4155	2.16757	
669.365	9.39778	2.12164	
680.191	7.96562	2.08255	
691.193	5.65397	2.04874	
702.372	-0.512550E-01	2.01713	
706.700	-17.9878	2.00516	
706.900	-17.9717	17.0241	
713.733	2.56129	16.8005	
725.277	7.51167	16.4340	
737.008	10.0375	16.0756	
748.928	11.7441	15.7252	
761.042	13.0180	15.3828	
773.351	14.0079	15.0480	
785.859	14.7737	14.7261	
798.570	15.2522	14.4327	
811.486	15.7357	14.5066	
824.611	16.3010	14.5809	
837.949	16.9294	14.6555	
851.502	17.6531	14.7305	
865.274	18.4917	14.5915	
879.269	19.1933	14.2652	
893.491	19.7329	13.9465	
907.943	20.2084	13.6347	
922.628	20.6272	13.3297	
937.551	21.0059	13.0418	
952.715	21.3544	12.7630	
968.124	21.6780	12.4928	
983.783	21.9801	12.2280	
999.695	22.2623	11.9685	
1015.86	22.5278	11.7140	
1032.29	22.7773	11.4617	
1048.99	23.0123	11.2106	
1065.96	23.2295	10.9604	
1083.20	23.4294	10.7157	
1100.72	23.6157	10.4765	
1118.52	23.7895	10.2426	
1136.61	23.9522	10.0139	
1155.	24.1046	9.79036	
1173.68	24.2478	9.57181	
1192.66	24.3825	9.35813	
1211.95	24.5096	9.14919	
1231.55	24.6313	8.94492	
1251.47	24.7468	8.74240	
1271.72	24.8564	8.54142	
1292.29	24.9571	8.34135	
1313.19	25.0487	8.14613	
1334.43	25.1338	7.95544	
1356.01	25.2129	7.76913	
1377.94	25.2865	7.58714	
1400.23	25.3551	7.40943	
1422.88	25.4192	7.23595	
1445.89	25.4798	7.06656	
1469.28	25.5369	6.90047	
1493.04	25.5920	6.73728	
1517.19	25.6426	6.57391	
1541.73	25.6872	6.41399	
1566.67	25.7275	6.25803	
1592.01	25.7642	6.10583	
1617.76	25.7977	5.95731	
1643.92	25.8282	5.81239	
1670.51	25.8563	5.67104	
1697.53	25.8823	5.53311	
1724.99	25.9076	5.39847	
1752.89	25.9308	5.26344	
1781.24	25.9507	5.13051	
1810.05	25.9667	4.99990	
1839.32	25.9797	4.87266	
1869.07	25.9902	4.74866	
1899.30	25.9985	4.62785	
1930.02	26.0049	4.51012	
1961.24	26.0098	4.39537	
1992.96	26.0124	4.28350	
2025.20	26.0153	4.17638	
2057.95	26.0175	4.06827	
2091.24	26.0174	3.96272	
2125.06	26.0155	3.85956	
2159.43	26.0122	3.75885	
2194.36	26.0074	3.66043	
2229.85	26.0014	3.56442	
2265.92	25.9942	3.47073	
2302.57	25.9860	3.37928	
2339.81	25.9766	3.28988	
2377.66	25.9662	3.20281	
2416.11	25.9549	3.11785	
2455.19	25.9428	3.03494	
2494.90	25.9299	2.95409	
2535.26	25.9162	2.87525	
2576.26	25.9018	2.79837	
2617.93	25.8866	2.72340	
2660.27	25.8709	2.65034	
2703.30	25.8546	2.57909	
2747.03	25.8377	2.50966	
2791.46	25.8202	2.44201	
2836.61	25.8023	2.37611	
2882.49	25.7839	2.31186	
2929.11	25.7650	2.24928	
2976.48	25.7457	2.18831	
3024.63	25.7260	2.12895	
3073.55	25.7059	2.07110	
3123.26	25.6855	2.01476	
3173.78	25.6647	1.95990	
3225.11	25.6436	1.90650	
3277.27	25.6221	1.85449	
3330.28	25.6003	1.80385	
3384.15	25.5782	1.75456	
3438.88	25.5559	1.70657	
3494.50	25.5332	1.65983	
3551.02	25.5102	1.61438	
3608.46	25.4869	1.57013	
3666.82	25.4632	1.52704	
3726.13	25.4393	1.48515	
3786.40	25.4151	1.44434	
3847.64	25.3905	1.40465	
3909.87	25.3655	1.36603	
3973.11	25.3402	1.32847	
4037.38	25.3145	1.29190	
4102.68	25.2884	1.25636	
4169.03	25.2619	1.22173	
4236.46	25.2348	1.18809	
4304.98	25.2073	1.15533	
4374.62	25.1792	1.12346	
4445.37	25.1505	1.09249	
4517.27	25.1211	1.06239	
4590.33	25.0910	1.03305	
4664.58	25.0601	1.00457	
4740.03	25.0283	0.976873	
4816.69	24.9955	0.949891	
4894.60	24.9617	0.923701	
4973.77	24.9266	0.898161	
5054.21	24.8902	0.873392	
5135.96	24.8522	0.849294	
5219.03	24.8126	0.825838	
5303.44	24.7710	0.803057	
5389.22	24.7271	0.780872	
5476.39	24.6808	0.759346	
5564.97	24.6315	0.738385	
5654.98	24.5789	0.718011	
5746.44	24.5222	0.698203	
5839.39	24.4609	0.678946	
5933.83	24.3940	0.660221	
6029.81	24.3204	0.642017	
6127.33	24.2384	0.624321	
6226.44	24.1460	0.607117	
6327.15	24.0402	0.590390	
6429.48	23.9168	0.574125	
6533.48	23.7691	0.558319	
6639.15	23.5861	0.542948	
6746.54	23.3481	0.528004	
6855.65	23.0124	0.513483	
6966.54	22.4591	0.499359	
7079.22	20.9344	0.485638	
7111.90	14.7513	0.481770	
7112.10	14.7518	3.85592	
7193.72	22.0197	3.79269	
7310.07	23.0311	3.70552	
7428.31	23.5788	3.61951	
7548.45	23.9595	3.53462	
7670.54	24.2518	3.45114	
7794.61	24.4888	3.36893	
7920.68	24.6873	3.28802	
8048.79	24.8575	3.20844	
8178.98	25.0058	3.13021	
8311.26	25.1364	3.05334	
8445.69	25.2527	2.97792	
8582.29	25.3569	2.90374	
8721.11	25.4507	2.83104	
8862.16	25.5355	2.75967	
9005.50	25.6126	2.68982	
9151.16	25.6829	2.62115	
9299.17	25.7468	2.55398	
9449.58	25.8054	2.48817	
9602.42	25.8590	2.42376	
9757.73	25.9081	2.36063	
9915.55	25.9532	2.29898	
10075.9	25.9946	2.23854	
10238.9	26.0325	2.17943	
10404.5	26.0673	2.12163	
10572.8	26.0992	2.06511	
10743.8	26.1284	2.00987	
10917.6	26.1552	1.95589	
11094.2	26.1797	1.90315	
11273.6	26.2020	1.85164	
11455.9	26.2224	1.80133	
11641.2	26.2410	1.75222	
11829.5	26.2578	1.70428	
12020.8	26.2730	1.65749	
12215.3	26.2868	1.61183	
12412.8	26.2992	1.56728	
12613.6	26.3103	1.52383	
12817.6	26.3202	1.48146	
13025.0	26.3289	1.44014	
13235.6	26.3366	1.39985	
13449.7	26.3433	1.36058	
13667.2	26.3491	1.32231	
13888.3	26.3540	1.28501	
14112.9	26.3582	1.24866	
14341.2	26.3616	1.21326	
14573.1	26.3642	1.17877	
14808.9	26.3663	1.14518	
15048.4	26.3677	1.11246	
15291.8	26.3685	1.08061	
15539.1	26.3689	1.04960	
15790.4	26.3687	1.01941	
16045.8	26.3681	0.990019	
16305.4	26.3670	0.961418	
16569.1	26.3655	0.933585	
16837.1	26.3637	0.906501	
17109.4	26.3616	0.880150	
17386.1	26.3591	0.854515	
17667.4	26.3563	0.829578	
17953.1	26.3533	0.805322	
18243.5	26.3500	0.781732	
18538.6	26.3465	0.758791	
18838.4	26.3428	0.736483	
19143.1	26.3389	0.714793	
19452.7	26.3348	0.693706	
19767.4	26.3305	0.673206	
20087.1	26.3261	0.653279	
20412.0	26.3216	0.633910	
20742.1	26.3170	0.615086	
21077.6	26.3123	0.596791	
21418.5	26.3075	0.579014	
21765.0	26.3026	0.561739	
22117.0	26.2976	0.544955	
22474.7	26.2926	0.528649	
22838.2	26.2875	0.512808	
23207.6	26.2824	0.497420	
23583.0	26.2772	0.482472	
23964.4	26.2720	0.467954	
24352.0	26.2668	0.453854	
24745.9	26.2616	0.440160	
25146.2	26.2564	0.426862	
25552.9	26.2512	0.413949	
25966.2	26.2460	0.401411	
26386.1	26.2408	0.389237	
26812.9	26.2356	0.377418	
27246.6	26.2304	0.365944	
27687.3	26.2253	0.354805	
28135.1	26.2202	0.343992	
28590.2	26.2151	0.333497	
29052.6	26.2100	0.323310	
29522.5	26.2050	0.313422	
30000.0	26.2000	0.303827	
