E(eV)	f1	f2
10.0000	-9999.	3.01183	
10.1617	-9999.	3.05548	
10.3261	-9999.	3.09976	
10.4931	-9999.	3.14468	
10.6628	-9999.	3.19025	
10.8353	-9999.	3.21825	
11.0106	-9999.	3.20755	
11.1886	-9999.	3.19689	
11.3696	-9999.	3.18626	
11.5535	-9999.	3.17568	
11.7404	-9999.	3.16687	
11.9303	-9999.	3.15816	
12.1232	-9999.	3.14947	
12.3193	-9999.	3.14080	
12.5186	-9999.	3.13216	
12.7210	-9999.	3.11421	
12.9268	-9999.	3.01683	
13.1359	-9999.	2.92250	
13.3483	-9999.	2.83112	
13.5642	-9999.	2.74260	
13.7836	-9999.	2.65685	
14.0066	-9999.	2.57378	
14.2331	-9999.	2.49330	
14.4633	-9999.	2.41534	
14.6973	-9999.	2.33982	
14.9350	-9999.	2.26666	
15.1765	-9999.	2.18698	
15.4220	-9999.	2.10697	
15.6714	-9999.	2.02987	
15.9249	-9999.	1.95560	
16.1825	-9999.	1.88405	
16.4442	-9999.	1.81511	
16.7102	-9999.	1.74870	
16.9805	-9999.	1.68472	
17.2551	-9999.	1.62308	
17.5342	-9999.	1.56369	
17.8178	-9999.	1.50648	
18.1060	-9999.	1.45136	
18.3989	-9999.	1.39825	
18.6964	-9999.	1.34406	
18.9988	-9999.	1.28586	
19.3061	-9999.	1.23018	
19.6184	-9999.	1.17690	
19.9357	-9999.	1.12594	
20.2582	-9999.	1.07718	
20.5858	-9999.	1.03054	
20.9188	-9999.	0.982739	
21.2571	-9999.	0.923062	
21.6009	-9999.	0.867009	
21.9503	-9999.	0.814359	
22.3053	-9999.	0.764906	
22.6661	-9999.	0.718458	
23.0327	-9999.	0.674829	
23.4053	-9999.	0.633850	
23.7838	-9999.	0.591594	
24.1685	-9999.	0.548427	
24.5594	-9999.	0.508410	
24.9566	-9999.	0.473964	
25.3603	-9999.	0.461030	
25.7705	-9999.	0.448450	
26.1873	-9999.	0.444589	
26.6109	-9999.	0.450264	
27.0413	-9999.	0.456011	
27.4786	-9999.	0.461832	
27.9231	-9999.	0.483682	
28.3747	-9999.	0.538895	
28.8337	-9999.	0.698676	
29.3000	0.440124	0.905829	
29.7739	0.272233	1.17440	
30.2555	0.162958	1.52262	
30.7449	0.217163	1.97406	
31.2421	0.453769	2.22141	
31.7475	0.682046	2.38416	
32.2609	0.882264	2.50492	
32.7827	1.13720	2.51621	
33.3130	1.28150	2.45219	
33.8518	1.37051	2.39089	
34.3993	1.42861	2.33813	
34.9557	1.46459	2.28654	
35.5211	1.47891	2.23706	
36.0956	1.47827	2.19667	
36.6794	1.46483	2.15701	
37.2727	1.43153	2.11806	
37.8755	1.36477	2.09638	
38.4882	1.30954	2.10723	
39.1107	1.26061	2.11814	
39.7432	1.20727	2.12910	
40.3861	1.14217	2.14324	
41.0393	1.07603	2.17356	
41.7031	1.00925	2.20431	
42.3776	0.930394	2.23549	
43.0630	0.827077	2.29344	
43.7595	0.745990	2.37463	
44.4673	0.674834	2.45869	
45.1865	0.604867	2.54573	
45.9174	0.529002	2.63585	
46.6600	0.452626	2.75745	
47.4147	0.398433	2.89179	
48.1816	0.367368	3.03269	
48.9609	0.368932	3.15118	
49.7528	0.351783	3.25097	
50.5576	0.326497	3.35393	
51.3753	0.299997	3.46014	
52.2062	0.273877	3.56893	
53.0506	0.246499	3.67975	
53.9087	0.218209	3.79400	
54.7806	0.188729	3.91180	
55.6667	0.155599	4.03326	
56.5670	0.124148	4.16976	
57.4820	0.986014E-01	4.31092	
58.4117	0.772277E-01	4.45687	
59.3564	0.597239E-01	4.60775	
60.3165	0.461093E-01	4.76374	
61.2921	0.361662E-01	4.92594	
62.2834	0.326300E-01	5.09471	
63.2908	0.359316E-01	5.26925	
64.3145	0.470171E-01	5.44978	
65.3547	0.674639E-01	5.63649	
66.4118	0.998144E-01	5.82960	
67.4859	0.148377	6.02932	
68.5775	0.234250	6.24339	
69.6867	0.348107	6.38321	
70.8138	0.430821	6.50992	
71.9591	0.497067	6.63914	
73.1230	0.558261	6.77093	
74.3057	0.616580	6.90534	
75.5076	0.673491	7.04241	
76.7289	0.729977	7.18220	
77.9699	0.786845	7.32477	
79.2310	0.844725	7.47017	
80.5125	0.904338	7.61845	
81.8147	0.966540	7.76968	
83.1380	1.03362	7.92391	
84.4827	1.10337	8.07343	
85.8491	1.17220	8.22490	
87.2377	1.24154	8.37922	
88.6487	1.31266	8.53643	
90.0825	1.38605	8.69659	
91.5395	1.46219	8.85976	
93.0201	1.54154	9.02599	
94.5246	1.62469	9.19533	
96.0535	1.71230	9.36786	
97.6071	1.80605	9.54362	
99.1858	1.91220	9.71828	
100.790	2.01653	9.88541	
102.420	2.11982	10.0554	
104.077	2.22529	10.2283	
105.760	2.33371	10.4042	
107.471	2.44578	10.5831	
109.209	2.56195	10.7651	
110.975	2.68284	10.9503	
112.770	2.80893	11.1386	
114.594	2.94092	11.3301	
116.448	3.07946	11.5250	
118.331	3.22554	11.7232	
120.245	3.38036	11.9248	
122.190	3.54595	12.1298	
124.166	3.72626	12.3384	
126.175	3.93605	12.5441	
128.215	4.14322	12.7108	
130.289	4.34297	12.8798	
132.397	4.54134	13.0510	
134.538	4.74284	13.2244	
136.714	4.94919	13.4002	
138.925	5.16203	13.5784	
141.172	5.38294	13.7589	
143.456	5.61394	13.9417	
145.776	5.85763	14.1271	
148.134	6.11865	14.3149	
150.530	6.40872	14.5052	
152.964	6.75914	14.6551	
155.439	7.06766	14.7403	
157.953	7.35360	14.8260	
160.507	7.63003	14.9123	
163.103	7.90170	14.9990	
165.742	8.17130	15.0862	
168.422	8.44065	15.1739	
171.146	8.71121	15.2621	
173.915	8.98432	15.3509	
176.727	9.26121	15.4401	
179.586	9.54331	15.5299	
182.491	9.83225	15.6202	
185.442	10.1302	15.7110	
188.442	10.4402	15.8024	
191.489	10.7677	15.8943	
194.587	11.1270	15.9867	
197.734	11.5612	16.0281	
200.932	11.9347	15.9773	
204.182	12.2704	15.9267	
207.485	12.5866	15.8763	
210.840	12.8900	15.8260	
214.251	13.1838	15.7759	
217.716	13.4704	15.7259	
221.237	13.7513	15.6762	
224.816	14.0278	15.6265	
228.452	14.3010	15.5771	
232.147	14.5718	15.5277	
235.902	14.8411	15.4785	
239.717	15.1099	15.4295	
243.595	15.3791	15.3807	
247.535	15.6498	15.3320	
251.538	15.9236	15.2834	
255.607	16.2024	15.2350	
259.741	16.4890	15.1868	
263.942	16.7887	15.1387	
268.211	17.1284	15.0908	
272.549	17.5025	14.9669	
276.957	17.8168	14.7856	
281.437	18.0944	14.6064	
285.989	18.3504	14.4295	
290.615	18.5905	14.2547	
295.315	18.8179	14.0820	
300.092	19.0344	13.9114	
304.945	19.2417	13.7428	
309.878	19.4409	13.5764	
314.890	19.6328	13.4119	
319.983	19.8182	13.2494	
325.158	19.9977	13.0889	
330.418	20.1721	12.9303	
335.762	20.3417	12.7737	
341.192	20.5073	12.6189	
346.711	20.6694	12.4660	
352.319	20.8287	12.3150	
358.017	20.9862	12.1658	
363.808	21.1439	12.0184	
369.692	21.3099	11.8645	
375.672	21.4642	11.6986	
381.748	21.6066	11.5351	
387.922	21.7434	11.3738	
394.197	21.8757	11.2148	
400.573	22.0044	11.0580	
407.052	22.1305	10.9034	
413.635	22.2551	10.7510	
420.326	22.3795	10.6007	
427.124	22.5055	10.4525	
434.032	22.6486	10.3064	
441.052	22.7953	10.1255	
448.186	22.9146	9.92938	
455.435	23.0164	9.73703	
462.802	23.1067	9.54840	
470.287	23.1881	9.36343	
477.894	23.2619	9.18205	
485.623	23.3290	9.00417	
493.478	23.3902	8.82973	
501.459	23.4461	8.65869	
509.570	23.4971	8.49095	
517.812	23.5436	8.32647	
526.187	23.5860	8.16517	
534.698	23.6248	8.00700	
543.346	23.6604	7.85188	
552.134	23.6934	7.69978	
561.065	23.7248	7.55061	
570.139	23.7577	7.40434	
579.361	23.7926	7.24878	
588.732	23.8162	7.08750	
598.254	23.8284	6.92980	
607.930	23.8342	6.77561	
617.763	23.8342	6.62486	
627.755	23.8290	6.47746	
637.908	23.8189	6.33334	
648.226	23.8043	6.19242	
658.711	23.7854	6.05464	
669.365	23.7622	5.91992	
680.191	23.7350	5.78821	
691.193	23.7038	5.65942	
702.372	23.6690	5.53350	
713.733	23.6304	5.41038	
725.277	23.5922	5.29000	
737.008	23.5481	5.16382	
748.928	23.4950	5.04011	
761.042	23.4351	4.91936	
773.351	23.3689	4.80150	
785.859	23.2965	4.68647	
798.570	23.2177	4.57419	
811.486	23.1325	4.46460	
824.611	23.0406	4.35764	
837.949	22.9417	4.25324	
851.502	22.8355	4.15134	
865.274	22.7219	4.05188	
879.269	22.6038	3.95175	
893.491	22.4717	3.84724	
907.943	22.3231	3.74549	
922.628	22.1594	3.64643	
937.551	21.9777	3.54999	
952.715	21.7725	3.46040	
968.124	21.5556	3.38610	
983.783	21.3242	3.31343	
999.695	21.0720	3.24258	
1015.86	20.7937	3.17352	
1032.29	20.4853	3.10813	
1048.99	20.1397	3.04357	
1065.96	19.7462	2.97979	
1083.20	19.2915	2.91735	
1100.72	18.7562	2.85623	
1118.52	18.1109	2.79642	
1136.61	17.3071	2.73776	
1155.	16.2561	2.68034	
1173.68	14.7694	2.62413	
1192.66	12.3113	2.56910	
1211.95	5.36147	2.51522	
1216.90	-12.3949	2.50172	
1217.10	-12.3903	16.7824	
1231.55	10.4277	16.6482	
1251.47	14.5274	16.4675	
1271.72	16.7825	16.2902	
1292.29	18.3764	16.1167	
1313.19	19.6267	15.9451	
1334.43	20.6657	15.7754	
1356.01	21.5628	15.6075	
1377.94	22.3592	15.4412	
1400.23	23.0821	15.2767	
1414.50	23.5101	15.1736	
1414.70	23.5159	15.1726	
1422.88	23.7522	15.1143	
1445.89	24.3891	14.9533	
1469.28	25.0164	14.7768	
1493.04	25.6447	14.5762	
1517.19	26.2152	14.2699	
1541.73	26.7087	13.9552	
1566.67	27.1411	13.6474	
1592.01	27.5330	13.3465	
1617.76	27.8914	13.0523	
1643.92	28.2214	12.7644	
1670.51	28.5271	12.4830	
1697.53	28.8116	12.2078	
1724.99	29.0840	11.9387	
1752.89	29.3384	11.6634	
1781.24	29.5711	11.3904	
1810.05	29.7845	11.1208	
1839.32	29.9801	10.8575	
1869.07	30.1611	10.6004	
1899.30	30.3289	10.3494	
1930.02	30.4849	10.1046	
1961.24	30.6304	9.86546	
1992.96	30.7643	9.63179	
2025.20	30.8964	9.40909	
2057.95	31.0213	9.18062	
2091.24	31.1339	8.95641	
2125.06	31.2378	8.73680	
2159.43	31.3336	8.52180	
2194.36	31.4223	8.31139	
2229.85	31.5040	8.10488	
2265.92	31.5791	7.90307	
2302.57	31.6482	7.70557	
2339.81	31.7117	7.51231	
2377.66	31.7697	7.32319	
2416.11	31.8229	7.13839	
2455.19	31.8712	6.95735	
2494.90	31.9148	6.78052	
2535.26	31.9543	6.60779	
2576.26	31.9898	6.43898	
2617.93	32.0217	6.27408	
2660.27	32.0501	6.11297	
2703.30	32.0750	5.95529	
2747.03	32.0967	5.80156	
2791.46	32.1155	5.65125	
2836.61	32.1313	5.50473	
2882.49	32.1447	5.36177	
2929.11	32.1558	5.22209	
2976.48	32.1644	5.08564	
3024.63	32.1707	4.95248	
3073.55	32.1749	4.82268	
3123.26	32.1772	4.69599	
3173.78	32.1777	4.57240	
3225.11	32.1764	4.45185	
3277.27	32.1735	4.33429	
3330.28	32.1691	4.21963	
3384.15	32.1633	4.10784	
3438.88	32.1561	3.99882	
3494.50	32.1476	3.89254	
3551.02	32.1380	3.78896	
3608.46	32.1273	3.68797	
3666.82	32.1155	3.58952	
3726.13	32.1027	3.49358	
3786.40	32.0890	3.40010	
3847.64	32.0745	3.30901	
3909.87	32.0592	3.22022	
3973.11	32.0431	3.13369	
4037.38	32.0263	3.04945	
4102.68	32.0089	2.96733	
4169.03	31.9909	2.88735	
4236.46	31.9723	2.80945	
4304.98	31.9532	2.73350	
4374.62	31.9335	2.65960	
4445.37	31.9134	2.58763	
4517.27	31.8929	2.51751	
4590.33	31.8719	2.44916	
4664.58	31.8505	2.38268	
4740.03	31.8288	2.31789	
4816.69	31.8067	2.25489	
4894.60	31.7843	2.19350	
4973.77	31.7616	2.13369	
5054.21	31.7385	2.07546	
5135.96	31.7152	2.01882	
5219.03	31.6916	1.96364	
5303.44	31.6677	1.90987	
5389.22	31.6434	1.85762	
5476.39	31.6190	1.80674	
5564.97	31.5943	1.75713	
5654.98	31.5693	1.70888	
5746.44	31.5440	1.66195	
5839.39	31.5184	1.61620	
5933.83	31.4925	1.57174	
6029.81	31.4664	1.52841	
6127.33	31.4399	1.48627	
6226.44	31.4130	1.44521	
6327.15	31.3857	1.40529	
6429.48	31.3581	1.36645	
6533.48	31.3301	1.32852	
6639.15	31.3015	1.29169	
6746.54	31.2724	1.25590	
6855.65	31.2429	1.22103	
6966.54	31.2127	1.18703	
7079.22	31.1818	1.15398	
7193.72	31.1503	1.12181	
7310.07	31.1179	1.09049	
7428.31	31.0846	1.06002	
7548.45	31.0503	1.03036	
7670.54	31.0150	1.00150	
7794.61	30.9784	0.973404	
7920.68	30.9404	0.946056	
8048.79	30.9009	0.919435	
8178.98	30.8596	0.893531	
8311.26	30.8164	0.868318	
8445.69	30.7708	0.843783	
8582.29	30.7227	0.819886	
8721.11	30.6715	0.796635	
8862.16	30.6168	0.774005	
9005.50	30.5581	0.751970	
9151.16	30.4944	0.730529	
9299.17	30.4249	0.709655	
9449.58	30.3484	0.689338	
9602.42	30.2630	0.669557	
9757.73	30.1666	0.650313	
9915.55	30.0560	0.631568	
10075.9	29.9265	0.613322	
10238.9	29.7705	0.595560	
10404.5	29.5756	0.578268	
10572.8	29.3184	0.561433	
10743.8	28.9463	0.545044	
10917.6	28.2956	0.529086	
11094.2	25.1168	0.513550	
11103.0	20.2986	0.512790	
11103.2	20.2990	3.89712	
11273.6	28.3851	3.80828	
11455.9	29.2238	3.71689	
11641.2	29.7193	3.62704	
11829.5	30.0738	3.53874	
12020.8	30.3497	3.45199	
12215.3	30.5748	3.36682	
12412.8	30.7642	3.28322	
12613.6	30.9268	3.20119	
12817.6	31.0685	3.12074	
13025.0	31.1934	3.04186	
13235.6	31.3045	2.96456	
13449.7	31.4039	2.88881	
13667.2	31.4933	2.81462	
13888.3	31.5740	2.74198	
14112.9	31.6472	2.67087	
14341.2	31.7137	2.60128	
14573.1	31.7743	2.53320	
14808.9	31.8295	2.46661	
15048.4	31.8800	2.40149	
15291.8	31.9260	2.33783	
15539.1	31.9682	2.27562	
15790.4	32.0067	2.21482	
16045.8	32.0420	2.15542	
16305.4	32.0742	2.09741	
16569.1	32.1037	2.04076	
16837.1	32.1306	1.98544	
17109.4	32.1551	1.93145	
17386.1	32.1774	1.87875	
17667.4	32.1977	1.82733	
17953.1	32.2161	1.77716	
18243.5	32.2328	1.72823	
18538.6	32.2478	1.68050	
18838.4	32.2613	1.63396	
19143.1	32.2734	1.58858	
19452.7	32.2842	1.54434	
19767.4	32.2938	1.50122	
20087.1	32.3022	1.45920	
20412.0	32.3096	1.41825	
20742.1	32.3160	1.37836	
21077.6	32.3214	1.33949	
21418.5	32.3260	1.30163	
21765.0	32.3298	1.26476	
22117.0	32.3329	1.22885	
22474.7	32.3352	1.19389	
22838.2	32.3369	1.15985	
23207.6	32.3380	1.12672	
23583.0	32.3385	1.09446	
23964.4	32.3385	1.06307	
24352.0	32.3381	1.03252	
24745.9	32.3371	1.00279	
25146.2	32.3358	0.973864	
25552.9	32.3340	0.945722	
25966.2	32.3319	0.918345	
26386.1	32.3295	0.891714	
26812.9	32.3268	0.865812	
27246.6	32.3238	0.840620	
27687.3	32.3205	0.816123	
28135.1	32.3170	0.792300	
28590.2	32.3133	0.769138	
29052.6	32.3095	0.746618	
29522.5	32.3076	0.724724	
30000.0	32.2946	0.703442	
