E(eV)	f1	f2
10.0000	-9999.	0.167624	
10.1617	-9999.	0.171642	
10.3261	-9999.	0.175757	
10.4931	-9999.	0.179971	
10.6628	-9999.	0.184286	
10.8353	-9999.	0.188704	
11.0106	-9999.	0.193658	
11.1886	-9999.	0.200859	
11.3696	-9999.	0.208329	
11.5535	-9999.	0.216076	
11.7404	-9999.	0.223826	
11.9303	-9999.	0.231364	
12.1232	-9999.	0.239156	
12.3193	-9999.	0.247210	
12.5186	-9999.	0.255856	
12.7210	-9999.	0.265033	
12.9268	-9999.	0.274538	
13.1359	-9999.	0.284211	
13.3483	-9999.	0.293582	
13.5642	-9999.	0.303262	
13.7836	-9999.	0.313261	
14.0066	-9999.	0.323589	
14.2331	-9999.	0.333375	
14.4633	-9999.	0.343298	
14.6973	-9999.	0.353517	
14.9350	-9999.	0.364353	
15.1765	-9999.	0.375936	
15.4220	-9999.	0.387886	
15.6714	-9999.	0.400031	
15.9249	-9999.	0.408584	
16.1825	-9999.	0.417320	
16.4442	-9999.	0.426243	
16.7102	-9999.	0.437477	
16.9805	-9999.	0.455184	
17.2551	-9999.	0.473608	
17.5342	-9999.	0.486864	
17.8178	-9999.	0.499004	
18.1060	-9999.	0.511445	
18.3989	-9999.	0.524229	
18.6964	-9999.	0.538388	
18.9988	-9999.	0.552929	
19.3061	-9999.	0.567862	
19.6184	-9999.	0.584048	
19.9357	-9999.	0.600706	
20.2582	-9999.	0.617839	
20.5858	-9999.	0.638919	
20.9188	-9999.	0.661735	
21.2571	-9999.	0.685366	
21.6009	-9999.	0.713229	
21.9503	-9999.	0.748039	
22.3053	-9999.	0.790689	
22.6661	-9999.	0.881858	
23.0327	-9999.	0.970660	
23.4053	-9999.	1.06118	
23.7838	-9999.	1.30727	
24.1685	-9999.	1.44952	
24.5594	-9999.	1.61295	
24.9566	-9999.	1.86820	
25.3603	-9999.	2.28008	
25.7705	-9999.	2.56526	
26.1873	-9999.	2.97313	
26.6109	-9999.	3.47041	
27.0413	-9999.	4.00771	
27.4786	-9999.	4.57972	
27.9231	-9999.	5.13553	
28.3747	-9999.	5.65403	
28.8337	-9999.	6.19349	
29.3000	-3.12960	6.78490	
29.7739	-3.14392	7.45822	
30.2555	-3.07757	8.19836	
30.7449	-2.86773	9.01194	
31.2421	-2.52286	9.71268	
31.7475	-2.09761	10.4420	
32.2609	-1.41577	11.0399	
32.7827	-0.856388	11.4515	
33.3130	-0.293774	11.8785	
33.8518	0.306621	12.1795	
34.3993	0.872409	12.4602	
34.9557	1.49192	12.6984	
35.5211	2.07923	12.8560	
36.0956	2.69930	13.0155	
36.6794	3.31575	12.9818	
37.2727	3.82927	12.9322	
37.8755	4.29050	12.8828	
38.4882	4.72734	12.8335	
39.1107	5.15670	12.7844	
39.7432	5.61256	12.6901	
40.3861	5.99779	12.5442	
41.0393	6.34077	12.3999	
41.7031	6.65443	12.2572	
42.3776	6.94492	12.1163	
43.0630	7.21658	11.9769	
43.7595	7.47201	11.8351	
44.4673	7.70805	11.6928	
45.1865	7.92774	11.5523	
45.9174	8.13273	11.4135	
46.6600	8.32411	11.2764	
47.4147	8.50262	11.1409	
48.1816	8.66877	11.0070	
48.9609	8.82274	10.8747	
49.7528	8.96378	10.7440	
50.5576	9.08877	10.6149	
51.3753	9.20409	10.5025	
52.2062	9.31703	10.3925	
53.0506	9.42389	10.2836	
53.9087	9.52333	10.1759	
54.7806	9.61449	10.0693	
55.6667	9.69640	9.96382	
56.5670	9.76752	9.85946	
57.4820	9.82431	9.75618	
58.4117	9.85440	9.65936	
59.3564	9.88623	9.60720	
60.3165	9.92935	9.55532	
61.2921	9.97592	9.50373	
62.2834	10.0212	9.45241	
63.2908	10.0634	9.40138	
64.3145	10.1007	9.35062	
65.3547	10.1312	9.30013	
66.4118	10.1488	9.24992	
67.4859	10.1348	9.21580	
68.5775	10.1393	9.22008	
69.6867	10.1595	9.22434	
70.8138	10.1846	9.22862	
71.9591	10.2122	9.23289	
73.1230	10.2406	9.23717	
74.3057	10.2684	9.24146	
75.5076	10.2945	9.24574	
76.7289	10.3175	9.25003	
77.9699	10.3354	9.25431	
79.2310	10.3439	9.25861	
80.5125	10.3281	9.27368	
81.8147	10.3258	9.32917	
83.1380	10.3388	9.38501	
84.4827	10.3604	9.44117	
85.8491	10.3871	9.49767	
87.2377	10.4176	9.55451	
88.6487	10.4510	9.61169	
90.0825	10.4869	9.66921	
91.5395	10.5250	9.72708	
93.0201	10.5651	9.78529	
94.5246	10.6072	9.84385	
96.0535	10.6515	9.90276	
97.6071	10.6988	9.96202	
99.1858	10.7509	10.0216	
100.790	10.8153	10.0816	
102.420	10.8817	10.1098	
104.077	10.9326	10.1333	
105.760	10.9726	10.1569	
107.471	11.0063	10.1805	
109.209	11.0346	10.2041	
110.975	11.0587	10.2278	
112.770	11.0806	10.2516	
114.594	11.1081	10.2691	
116.448	11.1208	10.2686	
118.331	11.1213	10.2681	
120.245	11.1147	10.2676	
122.190	11.1126	10.2671	
124.166	11.1766	10.2500	
126.175	11.1696	10.0642	
128.215	11.0535	9.88183	
130.289	10.8645	9.70275	
132.397	10.6159	9.52691	
134.538	10.2843	9.31956	
136.714	9.84480	9.11352	
138.925	9.29614	8.91203	
141.172	8.68411	8.71501	
143.456	7.84485	8.24218	
145.776	6.42588	7.70452	
148.134	4.40734	7.30426	
150.530	1.61720	6.92494	
152.964	-3.88245	6.31943	
155.439	-26.3497	11.4015	
157.953	-5.66441	49.4228	
160.507	12.1987	41.0236	
163.103	18.9197	33.0111	
165.742	19.1029	26.5826	
168.422	18.5942	25.1963	
171.146	18.9623	23.8824	
173.915	19.2737	22.6370	
176.727	19.0917	21.5454	
179.586	19.0393	21.2141	
182.491	19.2310	20.8879	
185.442	19.4731	20.5668	
188.442	19.7225	20.2506	
191.489	19.9575	19.9392	
194.587	20.1615	19.6327	
197.734	20.3028	19.3308	
200.932	20.3399	19.1531	
204.182	20.4603	19.0853	
207.485	20.6470	19.0178	
210.840	20.8529	18.9504	
214.251	21.0717	18.8834	
217.716	21.2995	18.8165	
221.237	21.5347	18.7499	
224.816	21.7777	18.6835	
228.452	22.0320	18.6174	
232.147	22.3192	18.5502	
235.902	22.5911	18.4014	
239.717	22.8300	18.2538	
243.595	23.0434	18.1074	
247.535	23.2389	17.9621	
251.538	23.4165	17.8180	
255.607	23.5741	17.6751	
259.741	23.7032	17.5333	
263.942	23.7734	17.4249	
268.211	23.8784	17.3847	
272.549	24.0046	17.3445	
276.957	24.1383	17.3044	
281.437	24.2743	17.2645	
285.989	24.4089	17.2246	
290.615	24.5387	17.1848	
295.315	24.6410	17.1450	
300.092	24.7510	17.1600	
304.945	24.8841	17.1759	
309.878	25.0276	17.1918	
314.890	25.1777	17.2078	
319.983	25.3323	17.2237	
325.158	25.4899	17.2397	
330.418	25.6491	17.2557	
335.762	25.8025	17.2717	
341.192	25.9565	17.3052	
346.711	26.1242	17.3459	
352.319	26.3014	17.3867	
358.017	26.4858	17.4276	
363.808	26.6768	17.4686	
369.692	26.8744	17.5096	
375.672	27.0789	17.5508	
381.748	27.2911	17.5921	
387.922	27.5123	17.6335	
394.197	27.7601	17.6736	
400.573	28.0052	17.6757	
407.052	28.2382	17.6778	
413.635	28.4690	17.6799	
420.326	28.7000	17.6820	
427.124	28.9330	17.6841	
434.032	29.1693	17.6863	
441.052	29.4112	17.6884	
448.186	29.6620	17.6905	
455.435	29.9364	17.6926	
462.802	30.2112	17.6447	
470.287	30.4692	17.5904	
477.894	30.7148	17.5362	
485.623	30.9559	17.4822	
493.478	31.1949	17.4284	
501.459	31.4335	17.3747	
509.570	31.6734	17.3213	
517.812	31.9170	17.2680	
526.187	32.1672	17.2148	
534.698	32.4273	17.1618	
543.346	32.7462	17.1090	
552.134	33.0555	16.9488	
561.065	33.3095	16.7753	
570.139	33.5354	16.6035	
579.361	33.7423	16.4335	
588.732	33.9343	16.2652	
598.254	34.1138	16.0987	
607.930	34.2823	15.9339	
617.763	34.4408	15.7707	
627.755	34.5894	15.6092	
637.908	34.7348	15.4536	
648.226	34.8762	15.2891	
658.711	35.0003	15.1178	
669.365	35.1043	14.9486	
680.191	35.1910	14.8033	
691.193	35.2857	14.6761	
702.372	35.4048	14.5510	
713.733	35.5302	14.3965	
725.277	35.6307	14.2227	
737.008	35.7130	14.0511	
748.928	35.7828	13.8816	
761.042	35.8424	13.7139	
773.351	35.8935	13.5467	
785.859	35.9351	13.3766	
798.570	35.9622	13.2048	
811.486	35.9761	13.0353	
824.611	35.9782	12.8678	
837.949	35.9687	12.7023	
851.502	35.9474	12.5379	
865.274	35.9139	12.3741	
879.269	35.8662	12.2113	
893.491	35.8044	12.0505	
907.943	35.7286	11.8918	
922.628	35.6409	11.7354	
937.551	35.5363	11.5727	
952.715	35.4117	11.4102	
968.124	35.2644	11.2481	
983.783	35.0945	11.0881	
999.695	34.9016	10.9294	
1015.86	34.6855	10.7719	
1032.29	34.4376	10.6061	
1048.99	34.1529	10.4408	
1065.96	33.8260	10.2761	
1083.20	33.4531	10.1136	
1100.72	33.0286	9.95392	
1118.52	32.5450	9.79687	
1136.61	31.9920	9.64205	
1155.	31.3560	9.48972	
1173.68	30.6192	9.33987	
1192.66	29.7561	9.19220	
1211.95	28.7310	9.04699	
1231.55	27.4903	8.90430	
1251.47	25.9489	8.76416	
1271.72	23.9597	8.62668	
1292.29	21.2354	8.49190	
1313.19	17.0871	8.35957	
1334.43	8.98271	8.22934	
1351.30	-46.1470	8.12876	
1351.50	-46.1240	42.3878	
1356.01	-4.04580	42.1847	
1377.94	15.9027	41.2201	
1400.23	23.1187	40.2775	
1422.88	27.6897	39.3565	
1445.89	31.0397	38.4564	
1469.28	33.6685	37.5774	
1493.04	35.8122	36.7194	
1517.19	37.6013	35.8824	
1541.73	39.1139	35.0647	
1566.67	40.3977	34.2654	
1592.01	41.4821	33.4848	
1617.76	42.3812	32.7219	
1643.92	43.0910	31.9759	
1670.51	43.5796	31.2471	
1697.53	43.7409	30.5353	
1724.99	42.9718	29.8402	
1741.10	36.1969	29.4446	
1741.30	36.2186	34.2020	
1752.89	43.3580	33.8881	
1781.24	45.8694	33.1406	
1810.05	47.2454	32.4095	
1839.32	48.2316	31.6952	
1869.07	48.9462	30.9967	
1899.30	49.2404	30.3136	
1922.70	46.8679	29.8025	
1922.90	46.8880	31.8540	
1930.02	49.3636	31.6870	
1961.24	51.1004	30.9726	
1992.96	52.0849	30.2743	
2025.20	52.8428	29.5980	
2057.95	53.4437	28.9312	
2091.24	53.8621	28.2786	
2125.06	53.5480	27.6414	
2128.20	52.3233	27.5836	
2128.40	52.3261	28.7312	
2159.43	54.9001	28.1975	
2194.36	55.6749	27.6175	
2229.85	56.3016	27.0453	
2265.92	56.8517	26.4812	
2302.57	57.3493	25.9259	
2339.81	57.8051	25.3775	
2377.66	58.2244	24.8373	
2416.11	58.6129	24.3062	
2455.19	58.9736	23.7827	
2494.90	59.3091	23.2682	
2535.26	59.6212	22.7618	
2576.26	59.9123	22.2642	
2617.93	60.1830	21.7746	
2660.27	60.4357	21.2945	
2703.30	60.6708	20.8213	
2747.03	60.8892	20.3575	
2791.46	61.0919	19.9021	
2836.61	61.2817	19.4567	
2882.49	61.4566	19.0159	
2929.11	61.6176	18.5862	
2976.48	61.7678	18.1647	
3024.63	61.9063	17.7506	
3073.55	62.0336	17.3452	
3123.26	62.1503	16.9473	
3173.78	62.2575	16.5583	
3225.11	62.3555	16.1759	
3277.27	62.4433	15.8014	
3330.28	62.5230	15.4359	
3384.15	62.5951	15.0770	
3438.88	62.6590	14.7258	
3494.50	62.7155	14.3823	
3551.02	62.7656	14.0466	
3608.46	62.8092	13.7166	
3666.82	62.8457	13.3940	
3726.13	62.8759	13.0785	
3786.40	62.9004	12.7699	
3847.64	62.9191	12.4680	
3909.87	62.9325	12.1728	
3973.11	62.9406	11.8841	
4037.38	62.9437	11.6017	
4102.68	62.9419	11.3256	
4169.03	62.9355	11.0557	
4236.46	62.9246	10.7918	
4304.98	62.9092	10.5338	
4374.62	62.8895	10.2816	
4445.37	62.8655	10.0351	
4517.27	62.8374	9.79422	
4590.33	62.8055	9.55897	
4664.58	62.7695	9.32871	
4740.03	62.7293	9.10391	
4816.69	62.6854	8.88447	
4894.60	62.6377	8.66984	
4973.77	62.5859	8.46002	
5054.21	62.5301	8.25528	
5135.96	62.4702	8.05510	
5219.03	62.4061	7.85980	
5303.44	62.3380	7.66888	
5389.22	62.2654	7.48225	
5476.39	62.1880	7.30013	
5564.97	62.1059	7.12237	
5654.98	62.0189	6.94875	
5746.44	61.9266	6.77900	
5839.39	61.8282	6.61311	
5933.83	61.7234	6.45123	
6029.81	61.6121	6.29348	
6127.33	61.4935	6.13907	
6226.44	61.3664	5.98829	
6327.15	61.2302	5.84119	
6429.48	61.0836	5.69737	
6533.48	60.9250	5.55712	
6639.15	60.7531	5.42016	
6746.54	60.5653	5.28628	
6855.65	60.3587	5.15571	
6966.54	60.1297	5.02842	
7079.22	59.8731	4.90361	
7193.72	59.5817	4.78220	
7310.07	59.2456	4.66342	
7428.31	58.8486	4.54724	
7548.45	58.3651	4.43426	
7670.54	57.7484	4.32377	
7794.61	56.8966	4.21560	
7920.68	55.5111	4.11014	
8048.79	51.1934	4.00761	
8071.	38.8400	3.99026	
8071.20	38.8409	11.1883	
8178.98	54.8890	10.9134	
8311.26	56.6276	10.5900	
8445.69	57.4368	10.2757	
8582.29	57.7983	9.97106	
8721.11	57.7456	9.67521	
8862.16	56.7304	9.38827	
8917.70	49.5830	9.27885	
8917.90	49.5851	12.9497	
9005.50	57.6303	12.7105	
9151.16	58.9313	12.3273	
9299.17	59.3281	11.9554	
9394.10	56.0601	11.7257	
9394.30	56.0608	13.4166	
9449.58	59.6769	13.3031	
9602.42	60.9199	12.9977	
9757.73	61.6743	12.6979	
9915.55	62.2640	12.4034	
10075.9	62.7575	12.1129	
10238.9	63.1827	11.8273	
10404.5	63.5564	11.5465	
10572.8	63.8886	11.2706	
10743.8	64.1864	10.9997	
10917.6	64.4551	10.7337	
11094.2	64.6985	10.4726	
11273.6	64.9198	10.2165	
11455.9	65.1215	9.96535	
11641.2	65.3056	9.71913	
11829.5	65.4740	9.47781	
12020.8	65.6281	9.24138	
12215.3	65.7691	9.00979	
12412.8	65.8983	8.78303	
12613.6	66.0165	8.56104	
12817.6	66.1247	8.34378	
13025.0	66.2236	8.13120	
13235.6	66.3139	7.92326	
13449.7	66.3962	7.71990	
13667.2	66.4712	7.52105	
13888.3	66.5393	7.32668	
14112.9	66.6010	7.13670	
14341.2	66.6568	6.95107	
14573.1	66.7070	6.76971	
14808.9	66.7520	6.59257	
15048.4	66.7921	6.41956	
15291.8	66.8277	6.25064	
15539.1	66.8591	6.08573	
15790.4	66.8865	5.92475	
16045.8	66.9102	5.76765	
16305.4	66.9304	5.61435	
16569.1	66.9474	5.46478	
16837.1	66.9613	5.31887	
17109.4	66.9723	5.17656	
17386.1	66.9807	5.03776	
17667.4	66.9866	4.90242	
17953.1	66.9901	4.77047	
18243.5	66.9914	4.64182	
18538.6	66.9907	4.51643	
18838.4	66.9881	4.39421	
19143.1	66.9836	4.27510	
19452.7	66.9775	4.15904	
19767.4	66.9698	4.04595	
20087.1	66.9606	3.93578	
20412.0	66.9501	3.82845	
20742.1	66.9383	3.72392	
21077.6	66.9253	3.62209	
21418.5	66.9111	3.52294	
21765.0	66.8960	3.42638	
22117.0	66.8798	3.33236	
22474.7	66.8627	3.24082	
22838.2	66.8448	3.15169	
23207.6	66.8262	3.06494	
23583.0	66.8067	2.98048	
23964.4	66.7866	2.89829	
24352.0	66.7658	2.81828	
24745.9	66.7445	2.74042	
25146.2	66.7226	2.66465	
25552.9	66.7001	2.59092	
25966.2	66.6772	2.51918	
26386.1	66.6538	2.44938	
26812.9	66.6299	2.38147	
27246.6	66.6057	2.31541	
27687.3	66.5810	2.25114	
28135.1	66.5560	2.18862	
28590.2	66.5307	2.12780	
29052.6	66.5055	2.06865	
29522.5	66.4852	2.01112	
30000.0	66.4355	1.95517	
