E(eV)	f1	f2
10.0000	-9999.	2.23820	
10.1447	-9999.	2.20464	
10.3088	-9999.	2.17288	
10.4756	-9999.	2.14408	
10.6450	-9999.	2.11566	
10.8172	-9999.	2.09307	
10.9921	-9999.	2.12057	
11.1699	-9999.	2.20711	
11.3506	-9999.	2.32651	
11.5342	-9999.	2.50051	
11.7207	-9999.	2.70468	
11.9103	-9999.	2.90608	
12.1029	-9999.	3.10741	
12.2987	-9999.	3.30207	
12.4976	-9999.	3.47987	
12.6997	-9999.	3.65905	
12.9052	-9999.	3.83170	
13.1139	-9999.	3.99671	
13.2000	-9999.	4.06604	
13.4000	-9999.	4.14903	
13.6167	-9999.	4.28511	
13.8000	-9999.	4.40189	
14.0000	-9999.	4.48484	
14.2000	-9999.	4.61366	
14.4000	-9999.	4.68521	
14.6000	-9999.	4.78024	
14.8361	-9999.	4.92749	
15.0761	-9999.	5.08904	
15.3200	-9999.	5.27782	
15.4000	-9999.	5.34063	
15.6000	-9999.	5.57004	
15.8000	-9999.	5.76754	
16.0556	-9999.	6.10461	
16.3152	-9999.	6.46138	
16.5791	-9999.	6.83899	
16.8473	-9999.	7.15482	
17.1198	-9999.	7.47780	
17.3967	-9999.	7.81536	
17.4000	-9999.	7.81949	
17.6000	-9999.	8.00166	
17.8847	-9999.	8.15603	
18.1739	-9999.	8.31339	
18.4000	-9999.	8.43669	
18.6000	-9999.	8.46479	
18.9008	-9999.	8.37323	
19.0000	-9999.	8.34358	
19.2000	5.20954	8.31758	
19.5105	5.55318	8.20842	
19.8261	5.83296	8.10068	
20.1468	6.08563	7.99436	
20.4726	6.32197	7.88943	
20.8038	6.54462	7.78587	
21.1403	6.75545	7.68369	
21.4822	6.94723	7.59194	
21.8000	7.13155	7.53526	
22.0000	7.28720	7.51410	
22.3558	7.54382	7.40221	
22.7174	7.82790	7.26913	
23.0000	8.04828	7.13196	
23.2000	8.20198	7.01413	
23.5752	8.43173	6.72563	
23.8000	8.56012	6.56063	
24.0000	8.63892	6.40783	
24.3882	8.76673	6.04135	
24.4000	8.78171	6.03061	
24.6000	8.78027	5.88373	
24.9979	8.78793	5.56663	
25.0000	8.79451	5.56501	
25.4000	8.78192	5.36448	
25.8108	8.80884	5.10496	
26.2283	8.78624	4.85800	
26.6525	8.74684	4.62299	
27.0836	8.69546	4.39935	
27.5217	8.64475	4.15808	
27.9668	8.54570	3.90057	
28.4191	8.40811	3.65900	
28.8788	8.23954	3.43240	
29.3459	8.04072	3.21983	
29.8205	7.80668	3.02042	
30.3028	7.51286	2.83337	
30.7930	7.19169	2.75214	
31.2910	6.89336	2.68998	
31.7971	6.56777	2.62922	
32.3114	6.20519	2.64651	
32.8340	5.88145	2.70805	
33.3651	5.55201	2.77103	
33.9048	5.19658	2.88268	
34.4531	4.87012	3.02580	
35.0104	4.54167	3.17602	
35.5766	4.18396	3.33370	
36.1521	3.74406	3.52307	
36.7368	3.29256	3.85938	
37.3310	2.88452	4.22779	
37.9348	2.41946	4.63138	
38.5484	1.90217	5.07349	
39.1718	1.13881	5.83319	
39.8054	0.839567	7.10494	
40.4492	0.906210	8.57420	
41.1035	1.21934	9.55601	
41.7683	1.69776	10.6502	
42.4439	2.33239	11.5398	
43.1304	3.23612	12.4914	
43.8279	4.28586	12.8588	
44.5368	5.06363	13.1002	
45.2572	5.77948	13.3462	
45.9892	6.48792	13.5968	
46.7330	7.19499	13.7169	
47.4889	7.87006	13.7968	
48.2570	8.46744	13.8772	
49.0375	9.03299	13.9580	
49.8306	9.61040	14.0873	
50.6366	10.2425	14.2381	
51.4556	11.0167	14.3904	
52.2879	11.8614	14.5444	
53.1336	12.7958	14.3024	
53.9930	13.6213	14.0002	
54.8663	14.3710	13.6925	
55.7537	15.0518	13.2537	
56.6555	15.7585	12.8290	
57.5718	16.4484	12.4179	
58.5030	17.0968	11.7007	
59.4492	17.5301	10.8716	
60.4108	17.5934	10.1012	
60.5000	17.5035	10.0331	
60.7500	17.7292	10.4822	
61.0000	18.2686	10.1299	
61.2500	18.1376	9.26469	
61.5000	17.8324	9.49797	
61.7500	18.1266	9.64907	
62.0000	18.2153	8.98189	
62.2500	17.9890	8.94557	
62.5000	18.0257	9.13384	
62.7500	18.4266	9.12316	
63.0000	18.4777	8.47376	
63.2500	18.3478	8.36029	
63.5000	18.2808	8.40188	
63.7500	18.4281	8.19366	
64.0000	18.5036	8.22930	
64.2500	18.2522	7.44827	
64.5000	18.3596	8.52242	
64.7500	18.8347	7.64205	
65.0000	18.6546	7.30402	
65.2500	18.5000	7.22291	
65.5000	18.4072	7.09348	
65.7500	18.4753	7.25067	
65.9990	18.5795	6.97852	
66.2500	18.5986	6.89767	
66.7500	18.6938	6.66086	
67.5000	18.6816	6.07085	
67.7500	18.7209	6.01022	
68.0000	18.7338	5.77271	
68.5000	18.6469	5.49419	
68.7500	18.6046	5.28664	
69.0000	18.5224	5.14681	
69.2500	18.4643	5.08478	
69.5000	18.4138	4.89222	
69.7500	18.3206	4.84541	
70.0000	18.2620	4.73206	
70.2500	18.2365	4.72830	
70.5000	18.2674	4.59901	
70.7500	18.2076	4.41675	
71.0000	18.1556	4.35222	
71.2500	18.0556	4.17081	
71.5000	17.9327	4.11991	
71.7500	17.8709	4.13939	
72.0000	17.8754	4.04662	
72.2500	17.8281	3.97945	
72.5000	17.7803	3.86676	
72.7500	17.7055	3.85273	
73.2500	17.6603	3.67929	
73.5000	17.5895	3.65415	
73.7500	17.5756	3.58906	
74.0000	17.5169	3.50218	
74.2500	17.4635	3.45713	
74.5000	17.4253	3.44584	
75.0000	17.3677	3.28343	
76.0000	17.2560	3.03419	
77.0000	17.1062	2.77284	
77.2500	17.0580	2.70452	
77.5000	17.0210	2.65231	
78.5000	16.8174	2.41878	
78.7500	16.7797	2.37190	
79.5000	16.6212	2.21214	
80.0000	16.5228	2.12372	
81.0000	16.3054	1.95986	
81.7500	16.1571	1.86056	
82.0000	16.0996	1.82112	
82.2500	16.0573	1.79805	
82.7500	15.9490	1.73947	
84.0884	15.6862	1.61784	
84.2500	15.6731	1.60386	
85.0000	15.5629	1.55302	
85.2500	15.5038	1.50288	
86.0000	15.3621	1.46390	
86.5000	15.2824	1.43164	
86.7500	15.2317	1.42941	
87.0000	15.2038	1.41247	
87.2500	15.1578	1.40706	
87.5000	15.1129	1.38653	
88.9152	14.9180	1.33199	
89.2500	14.8743	1.31953	
90.0010	14.7729	1.28227	
91.0010	14.6330	1.24929	
91.2500	14.6058	1.24483	
91.5000	14.5715	1.23497	
91.7500	14.5459	1.23131	
92.2500	14.4792	1.20965	
92.5000	14.4526	1.20519	
92.7500	14.4185	1.19436	
93.2500	14.3567	1.18143	
93.7500	14.2939	1.17389	
94.0000	14.2675	1.16530	
94.2500	14.2329	1.16232	
95.0000	14.1473	1.14332	
95.5000	14.0853	1.14146	
96.0000	14.0276	1.13176	
97.0000	13.9105	1.12572	
97.2500	13.8869	1.12807	
97.7500	13.8336	1.12304	
99.3310	13.6664	1.12836	
99.5000	13.6501	1.12892	
100.000	13.6008	1.12422	
101.000	13.5073	1.15054	
101.500	13.4642	1.14034	
102.000	13.4137	1.14310	
102.500	13.3678	1.16962	
103.000	13.3340	1.16396	
103.500	13.2949	1.18771	
104.000	13.2659	1.17972	
104.500	13.2191	1.18491	
105.000	13.1842	1.19752	
105.500	13.1439	1.20176	
106.000	13.1094	1.21224	
106.500	13.0772	1.22801	
107.000	13.0502	1.22468	
107.500	13.0148	1.23528	
108.000	12.9785	1.23181	
108.500	12.9430	1.25392	
109.000	12.9208	1.26327	
109.500	12.8959	1.26128	
111.271	12.7793	1.28224	
111.500	12.7662	1.28495	
112.000	12.7362	1.28415	
112.500	12.7074	1.29673	
113.500	12.6366	1.31002	
114.000	12.6121	1.32977	
114.500	12.5839	1.33200	
115.500	12.5292	1.36794	
116.000	12.5092	1.37159	
116.500	12.4882	1.38204	
117.000	12.4604	1.38587	
118.000	12.4148	1.41934	
118.500	12.3923	1.41969	
119.000	12.3743	1.43620	
119.500	12.3491	1.44510	
120.000	12.3459	1.46173	
121.500	12.3049	1.46901	
122.000	12.2813	1.45494	
123.000	12.2215	1.46036	
124.000	12.1743	1.47359	
125.000	12.1186	1.49514	
126.000	12.0742	1.50402	
128.000	12.0244	1.57421	
129.000	11.9850	1.54527	
130.000	11.9253	1.56134	
131.000	11.8877	1.59716	
132.000	11.8578	1.60038	
134.000	11.7785	1.62488	
135.000	11.7325	1.62290	
136.000	11.6977	1.65645	
138.000	11.5999	1.67539	
139.000	11.5740	1.71228	
140.000	11.5454	1.72262	
141.000	11.4971	1.70564	
142.000	11.4468	1.76297	
143.000	11.4225	1.76841	
144.000	11.3836	1.80146	
146.000	11.3231	1.81816	
147.000	11.2794	1.85414	
148.000	11.2535	1.87819	
149.000	11.2270	1.88871	
151.000	11.1628	1.93743	
152.000	11.1430	1.94694	
153.000	11.1170	1.96760	
154.000	11.0945	1.97101	
156.000	11.0431	2.00330	
158.523	10.9720	2.01755	
160.000	10.9268	2.02584	
161.000	10.8926	2.02529	
162.000	10.8530	2.04178	
163.000	10.8308	2.03621	
165.636	10.7180	2.06109	
167.000	10.6599	2.07392	
168.000	10.6246	2.06447	
169.000	10.5839	2.10381	
170.000	10.5598	2.09633	
172.000	10.4756	2.12064	
173.000	10.4475	2.11404	
175.000	10.3556	2.13189	
176.000	10.3220	2.11976	
178.847	10.1719	2.16600	
179.000	10.1683	2.16850	
181.000	10.0698	2.15687	
182.000	10.0188	2.18161	
183.000	9.96933	2.18829	
184.000	9.92972	2.21208	
185.000	9.88437	2.19724	
186.000	9.80975	2.19402	
187.000	9.72246	2.21310	
188.000	9.68785	2.29181	
190.000	9.61924	2.32368	
191.000	9.58679	2.33252	
192.000	9.54296	2.32884	
193.000	9.50024	2.33938	
195.000	9.39084	2.33286	
197.000	9.27785	2.35548	
200.000	9.08200	2.36960	
201.000	9.04361	2.39941	
203.000	8.90831	2.38219	
204.000	8.84821	2.40118	
205.000	8.77592	2.39285	
206.000	8.72659	2.40659	
209.332	8.45788	2.42222	
212.000	8.24425	2.43463	
215.000	7.98959	2.46663	
216.000	7.89337	2.45939	
218.000	7.69638	2.48544	
220.000	7.49359	2.48963	
222.000	7.27084	2.51004	
223.000	7.14371	2.50513	
225.000	6.86336	2.51774	
226.000	6.70448	2.53945	
227.000	6.48180	2.53091	
228.000	6.35222	2.75666	
229.000	6.27253	2.73945	
230.000	6.10332	2.74607	
231.000	5.95109	2.87667	
232.000	5.85930	2.92282	
233.000	5.71690	2.94456	
234.000	5.57309	3.00377	
235.000	5.42136	3.04436	
236.000	5.25930	3.06937	
237.000	5.04452	3.10966	
240.000	4.37525	3.45913	
241.000	4.20557	3.66680	
242.000	4.06726	3.79756	
243.000	3.90798	3.96827	
244.000	3.79931	4.16674	
245.000	3.76288	4.33353	
246.000	3.53058	4.34746	
249.979	2.85098	4.68637	
251.000	2.58414	4.77662	
253.000	2.06339	5.17262	
255.000	1.53475	5.67817	
258.000	0.849635	6.69429	
260.000	0.521002	7.52395	
262.000	0.327261	8.37932	
263.000	0.268510	8.88382	
266.000	0.505738	10.2424	
267.000	0.655385	10.6584	
269.000	0.949757	11.2767	
273.351	1.76660	12.4461	
274.000	1.89238	12.6289	
276.000	2.34601	13.0767	
278.000	2.78244	13.3229	
281.000	3.24424	13.5314	
283.000	3.44170	13.7116	
287.577	3.80396	14.2016	
292.229	4.13615	14.7091	
295.000	4.26561	15.0160	
299.000	4.47204	15.6246	
300.000	4.57044	15.6755	
301.000	4.62717	15.9323	
303.000	4.65400	16.1742	
304.000	4.84355	16.5721	
305.000	5.02916	16.5000	
307.000	5.11596	16.9365	
309.000	5.33858	17.2674	
310.000	5.56797	17.4915	
314.000	6.24439	17.9964	
319.000	7.15040	18.4059	
323.000	7.91010	18.6190	
324.000	8.00512	18.5510	
327.000	8.35758	18.5476	
331.000	8.66712	18.5783	
335.000	8.88587	18.7654	
336.000	8.99214	18.8612	
338.000	9.18687	18.9689	
343.000	9.71865	19.1728	
344.000	9.84114	19.1283	
349.564	10.0345	19.3149	
350.000	10.1391	19.3295	
354.000	10.4157	19.5730	
359.726	10.9288	19.6365	
363.000	11.1180	19.6725	
367.000	11.2489	19.8500	
370.000	11.4698	19.9127	
370.750	11.3516	19.6817	
371.010	11.4256	19.8080	
371.500	11.3382	19.8121	
371.750	11.4461	19.8704	
372.250	11.3854	19.7893	
372.750	11.3917	19.7811	
373.500	11.2591	19.8950	
375.250	11.3698	19.9540	
376.000	11.2288	20.0178	
376.250	11.3151	19.9865	
376.500	11.1075	20.0771	
378.510	11.3493	20.2438	
378.750	11.1473	20.3335	
379.500	11.2675	20.2803	
379.740	11.0661	20.4178	
380.250	11.1908	20.4314	
380.490	11.0413	20.5787	
380.990	10.9673	20.5545	
383.000	11.2083	20.8306	
383.500	11.1750	20.7468	
383.760	10.9695	20.9026	
386.000	11.2678	21.0774	
386.500	11.0259	21.1276	
386.740	11.0511	21.2518	
387.750	10.8746	21.3268	
388.250	10.7937	21.4446	
388.750	10.6580	21.4598	
389.500	10.3974	21.7481	
390.000	10.2224	21.8427	
391.250	9.49670	22.6379	
391.750	9.19170	23.1876	
392.250	8.93474	23.9613	
392.750	8.75505	24.9822	
393.000	8.86048	25.7464	
393.250	9.07352	26.4119	
393.490	9.53752	27.2561	
393.750	10.2797	27.8810	
393.990	11.0990	28.2816	
394.260	12.0065	28.4996	
394.500	12.8543	28.5772	
394.750	13.7004	28.4991	
395.250	15.2607	27.7574	
395.500	15.7808	27.2312	
395.760	16.0475	26.5823	
396.750	16.4384	24.8287	
397.000	16.5086	24.5620	
397.250	16.4678	24.1553	
397.750	16.3678	23.6733	
399.000	15.7643	22.9672	
400.260	15.2997	22.6893	
401.490	14.8646	22.7178	
401.760	14.8742	22.8054	
402.250	14.7633	22.8388	
402.740	14.7104	22.9924	
403.250	14.6573	23.1447	
403.500	14.7245	23.2805	
403.750	14.7302	23.3142	
404.000	14.8888	23.4613	
404.750	15.2009	23.5612	
405.000	15.2800	23.4695	
405.500	15.3592	23.4172	
406.250	15.4784	23.3021	
406.500	15.4339	23.3331	
407.500	15.5118	23.1313	
408.500	15.2802	23.0968	
409.260	15.1054	23.3282	
409.510	15.0328	23.3322	
410.260	14.9135	24.0232	
411.260	15.6923	25.2454	
411.770	16.5296	25.3650	
412.490	17.4799	24.9184	
412.990	17.9989	24.4975	
413.250	18.1358	24.1436	
414.500	18.1087	23.1175	
414.750	18.0748	23.0530	
415.000	17.8969	22.8142	
416.750	17.5739	22.2709	
417.740	17.4000	22.2505	
418.000	17.4000	22.1681	
419.750	16.9477	22.2657	
420.000	16.9069	22.3594	
420.500	16.9217	22.3668	
420.750	16.9639	22.6746	
421.000	16.9407	22.4645	
421.500	17.0536	22.6295	
422.750	17.4223	22.6417	
423.000	17.4238	22.4670	
423.250	17.4004	22.5710	
423.500	17.4277	22.4887	
424.000	17.4798	22.5762	
424.500	17.4433	22.4228	
424.750	17.5516	22.5387	
425.010	17.5889	22.4013	
425.750	17.6030	22.2840	
427.000	17.5730	22.3270	
427.250	17.4421	22.2554	
429.250	17.3136	22.3439	
429.500	17.4238	22.4117	
430.260	17.4152	22.4161	
431.500	17.4743	22.4748	
431.750	17.4426	22.4494	
432.000	17.4802	22.5176	
432.250	17.3989	22.4695	
432.500	17.5354	22.6994	
432.750	17.5645	22.5192	
433.000	17.7261	22.4917	
434.250	17.5267	22.6457	
435.000	17.6020	22.6283	
435.250	17.4814	22.7386	
436.000	17.5626	22.7439	
437.500	17.7647	22.9279	
437.750	17.6928	22.8802	
439.250	17.7848	23.1869	
445.000	18.9619	23.6101	
448.000	19.5261	23.5752	
449.000	19.7144	23.5173	
450.000	20.0331	23.6487	
451.000	20.1448	23.1902	
453.000	20.4573	23.0596	
454.000	20.5896	22.8879	
455.000	20.5087	22.5607	
456.000	20.5586	22.7236	
458.000	20.6527	22.6792	
460.000	20.8335	22.4982	
461.000	20.9196	22.5345	
462.000	20.8481	22.3737	
467.000	21.0834	22.0015	
468.000	21.1637	22.0070	
469.000	21.0487	21.8466	
470.000	21.0840	22.1161	
471.000	21.3395	22.1599	
472.000	21.2460	21.7722	
475.000	21.4243	21.7492	
476.000	21.2596	21.6441	
478.000	21.2229	21.7667	
479.000	21.3836	22.0842	
480.000	21.7389	21.7527	
484.000	21.3354	21.6603	
485.000	21.4065	21.5557	
486.000	21.5577	22.0567	
487.000	21.7189	21.5591	
488.000	21.6858	21.8482	
489.000	21.7875	21.6097	
490.000	21.9400	21.7143	
493.000	21.8289	21.4763	
496.000	21.7731	21.6375	
497.000	21.7953	21.6120	
498.000	21.8504	21.6793	
499.000	21.8056	21.6512	
501.000	21.8116	21.8728	
502.000	21.9441	22.0572	
503.000	22.0512	21.8156	
504.000	21.9656	22.0221	
505.000	22.1703	22.0888	
506.000	22.2066	22.0449	
507.000	22.1112	21.8619	
508.000	22.1045	22.3984	
509.000	22.3633	22.2360	
510.000	22.4267	22.4006	
511.000	22.5218	22.3023	
513.000	22.5547	22.3475	
515.000	22.6391	22.5697	
516.000	22.8437	22.9394	
517.000	23.1527	22.6833	
518.000	23.1722	22.7520	
519.000	23.2851	22.7036	
521.000	23.7379	22.9384	
522.000	23.7485	22.5718	
523.000	23.8158	22.8523	
524.000	23.9382	22.6965	
525.000	23.9950	22.7614	
526.000	24.1951	22.9786	
527.000	24.3825	22.7099	
528.000	24.6848	23.0106	
529.000	24.7589	22.2907	
530.000	24.4342	22.4065	
531.000	24.7047	22.9888	
532.000	25.1194	22.6245	
533.000	25.3965	22.5419	
534.000	25.3568	22.1008	
535.000	25.0291	21.8848	
536.000	25.3340	22.9132	
537.000	25.8244	21.9605	
538.000	25.6353	21.8652	
539.000	25.4762	21.6171	
540.000	25.4161	21.9564	
541.000	25.5275	21.8132	
542.000	25.7506	22.1452	
543.010	26.1033	21.7086	
544.000	26.2364	21.5559	
545.000	25.7176	20.5629	
546.000	26.3475	21.6065	
549.000	26.2056	21.4023	
550.000	26.1179	20.9610	
551.000	25.8764	21.2390	
554.000	26.5224	20.9745	
555.000	26.1842	20.6909	
556.000	26.1415	20.7764	
557.000	26.1140	21.0550	
558.000	26.3050	20.5763	
559.000	26.0379	20.8668	
560.000	26.0171	20.5696	
562.000	26.1676	21.1556	
562.990	26.3207	20.8232	
564.000	26.2724	21.1332	
565.000	26.5669	20.8293	
566.000	26.3858	20.8519	
567.000	26.5143	20.7440	
569.010	26.2225	20.7968	
570.000	26.4698	20.8888	
572.000	26.3607	21.2869	
580.000	27.8004	20.0625	
582.000	27.2970	20.1370	
584.000	27.0994	19.8560	
586.000	26.8593	20.1404	
589.990	26.9268	20.4121	
599.533	27.7729	20.5036	
600.000	27.8063	20.5081	
602.000	27.8083	20.3636	
604.000	27.9122	20.4230	
610.000	28.3558	20.2740	
612.000	28.4561	20.1466	
614.000	28.5508	20.1158	
620.000	28.7462	19.8317	
630.010	28.9959	19.6391	
640.000	29.3335	19.4223	
648.000	29.5941	19.2809	
652.000	29.7534	19.1561	
656.000	29.8586	19.1121	
657.990	29.9756	19.0081	
662.000	30.0292	18.9700	
664.000	30.1725	18.8819	
674.740	30.3659	18.7183	
684.000	30.6818	18.5804	
694.000	31.1216	18.3790	
702.000	31.5017	18.1283	
703.990	31.5075	18.0031	
710.000	31.5938	17.8055	
712.000	31.7313	17.8329	
714.000	31.8038	17.6779	
722.000	31.7977	17.4101	
724.000	31.8189	17.4732	
728.010	31.7782	17.3160	
739.785	32.1962	17.0953	
744.000	32.2852	17.0178	
748.000	32.3586	16.9561	
750.000	32.4267	16.9551	
758.000	32.6602	16.7376	
768.000	32.9224	16.4707	
770.000	32.9728	16.4692	
772.000	33.1045	16.3664	
774.000	33.1149	16.3366	
776.000	33.3038	16.1628	
788.551	33.1497	15.8333	
801.305	33.2778	15.5105	
802.000	33.2851	15.4933	
806.000	33.3566	15.4087	
815.990	33.4467	15.3219	
829.188	33.6977	15.0785	
830.010	33.7753	15.0636	
832.000	33.7563	15.0663	
834.010	33.8598	14.9730	
836.000	33.8322	14.9468	
838.000	33.9073	14.8540	
840.000	33.8254	14.8614	
853.586	34.1761	14.5460	
862.000	34.3185	14.3564	
871.990	34.4123	14.0749	
878.000	34.4113	13.9611	
880.000	34.4381	13.9046	
882.000	34.4094	13.9121	
888.000	34.4865	13.7253	
896.000	34.5671	13.6432	
897.990	34.5753	13.5638	
899.990	34.5542	13.5810	
904.000	34.6758	13.4919	
906.000	34.6621	13.4643	
907.990	34.6577	13.3575	
916.000	34.7220	13.2798	
918.000	34.7390	13.2132	
920.010	34.7284	13.2203	
922.000	34.7648	13.1541	
924.000	34.8015	13.2271	
926.000	34.8841	13.0496	
928.010	34.8136	13.0382	
943.020	34.9850	12.7263	
958.272	35.0337	12.4218	
973.772	35.0353	12.1651	
989.522	35.0575	12.0039	
1005.53	35.1742	11.8198	
1021.79	35.2741	11.5762	
1038.32	35.3513	11.3376	
1055.11	35.4177	11.1038	
1072.18	35.4762	10.8749	
1089.52	35.5284	10.6508	
1107.14	35.5749	10.4312	
1125.05	35.6164	10.2161	
1143.24	35.6531	10.0055	
1161.73	35.6855	9.79928	
1180.52	35.7139	9.59728	
1199.62	35.7386	9.39943	
1219.02	35.7598	9.20566	
1238.74	35.7788	9.01589	
1258.77	35.7981	8.83002	
1279.13	35.8134	8.64029	
1299.82	35.8208	8.45265	
1320.85	35.8224	8.26907	
1342.21	35.8192	8.08949	
1363.92	35.8116	7.91380	
1385.98	35.7999	7.74193	
1408.40	35.7844	7.57379	
1431.18	35.7650	7.40931	
1454.32	35.7421	7.24839	
1477.85	35.7157	7.09097	
1501.75	35.6858	6.93697	
1526.04	35.6552	6.78632	
1550.72	35.6214	6.63329	
1575.80	35.5811	6.48153	
1601.29	35.5323	6.33325	
1627.19	35.4785	6.18836	
1653.51	35.4193	6.04679	
1680.25	35.3546	5.90844	
1707.43	35.2843	5.77327	
1735.05	35.2081	5.64119	
1763.11	35.1257	5.51213	
1791.63	35.0367	5.38602	
1820.60	34.9408	5.26280	
1850.05	34.8373	5.14240	
1879.97	34.7256	5.02475	
1910.38	34.6051	4.90979	
1941.28	34.4754	4.79747	
1972.68	34.3341	4.68573	
2004.58	34.1794	4.57558	
2037.01	34.0091	4.46803	
2069.95	33.8212	4.36299	
2103.43	33.6132	4.26044	
2137.46	33.3815	4.16029	
2172.03	33.1216	4.06249	
2207.16	32.8270	3.96699	
2242.86	32.4891	3.87374	
2279.13	32.0953	3.78268	
2316.	31.6267	3.69376	
2353.46	31.0529	3.60694	
2391.52	30.3197	3.52215	
2430.20	29.3147	3.43935	
2469.51	27.7297	3.35851	
2493.	26.0567	3.31169	
2520.10	11.7655	3.25903	
2520.30	11.7660	11.2040	
2526.	22.0106	11.1674	
2566.86	26.8215	10.9111	
2592.	27.2955	10.7583	
2625.	21.0984	10.5632	
2625.20	21.1046	14.4992	
2626.	23.8802	14.4931	
2668.47	29.6895	14.1719	
2711.63	31.2204	13.8578	
2755.49	32.2005	13.5507	
2800.06	32.8335	13.2504	
2839.	33.0038	12.9972	
2865.40	30.3063	12.8302	
2865.60	30.3097	14.5823	
2876.	33.0633	14.5069	
2922.52	34.6194	14.1777	
2969.79	35.4837	13.8559	
3017.82	36.1595	13.5414	
3066.63	36.7285	13.2341	
3116.23	37.2237	12.9337	
3166.63	37.6632	12.6402	
3217.85	38.0588	12.3533	
3269.90	38.4199	12.0729	
3322.79	38.7534	11.7969	
3376.53	39.0586	11.5112	
3431.14	39.3346	11.2324	
3486.64	39.5820	10.9604	
3543.03	39.8093	10.6950	
3600.34	40.0181	10.4360	
3658.57	40.2105	10.1832	
3717.74	40.3884	9.93663	
3777.88	40.5532	9.69597	
3838.98	40.7074	9.46115	
3901.07	40.8546	9.23203	
3964.17	40.9913	9.00145	
4028.29	41.1149	8.77184	
4093.44	41.2262	8.54808	
4159.65	41.3274	8.33001	
4226.93	41.4199	8.11752	
4295.29	41.5045	7.91045	
4364.77	41.5819	7.70867	
4435.36	41.6528	7.51203	
4507.10	41.7177	7.32039	
4580.	41.7772	7.13365	
4654.08	41.8317	6.95168	
4729.35	41.8832	6.77435	
4805.85	41.9312	6.60155	
4883.58	41.9752	6.42872	
4962.57	42.0137	6.25797	
5042.83	42.0462	6.09175	
5124.40	42.0743	5.92995	
5207.28	42.0983	5.77245	
5291.50	42.1188	5.61913	
5377.09	42.1361	5.46987	
5464.06	42.1504	5.32459	
5552.44	42.1621	5.18316	
5642.24	42.1712	5.04550	
5733.50	42.1781	4.91149	
5826.24	42.1829	4.78102	
5920.47	42.1858	4.65404	
6016.23	42.1870	4.53042	
6113.54	42.1870	4.41009	
6212.42	42.1859	4.29296	
6312.90	42.1843	4.17736	
6415.01	42.1800	4.06303	
6518.76	42.1733	3.95183	
6624.20	42.1648	3.84368	
6731.34	42.1548	3.73849	
6840.21	42.1434	3.63618	
6950.85	42.1308	3.53667	
7063.27	42.1171	3.43987	
7177.52	42.1024	3.34573	
7293.61	42.0868	3.25417	
7411.57	42.0703	3.16511	
7531.45	42.0531	3.07849	
7653.27	42.0352	2.99424	
7777.05	42.0166	2.91229	
7902.84	41.9974	2.83259	
8030.66	41.9777	2.75507	
8160.55	41.9575	2.67967	
8292.54	41.9368	2.60633	
8426.67	41.9157	2.53500	
8562.96	41.8942	2.46562	
8701.46	41.8724	2.39814	
8842.20	41.8504	2.33251	
8985.22	41.8283	2.26868	
9130.54	41.8058	2.20595	
9278.22	41.7828	2.14481	
9428.29	41.7593	2.08536	
9580.79	41.7354	2.02756	
9735.75	41.7112	1.97136	
9893.22	41.6866	1.91663	
10053.2	41.6618	1.86340	
10215.8	41.6366	1.81163	
10381.1	41.6111	1.76127	
10549.0	41.5853	1.71229	
10719.6	41.5592	1.66464	
10893.0	41.5328	1.61830	
11069.2	41.5060	1.57323	
11248.2	41.4789	1.52939	
11430.1	41.4515	1.48676	
11615.0	41.4237	1.44530	
11802.9	41.3954	1.40498	
11993.8	41.3667	1.36577	
12187.8	41.3376	1.32764	
12384.9	41.3079	1.29056	
12585.2	41.2777	1.25451	
12788.8	41.2469	1.21945	
12995.6	41.2154	1.18536	
13205.8	41.1832	1.15221	
13419.4	41.1501	1.11997	
13636.4	41.1162	1.08863	
13857.0	41.0812	1.05816	
14081.1	41.0451	1.02852	
14308.9	41.0077	0.999713	
14540.3	40.9689	0.971700	
14775.5	40.9284	0.944462	
15014.5	40.8861	0.917980	
15257.3	40.8416	0.892231	
15504.1	40.7947	0.867197	
15754.8	40.7450	0.842856	
16009.7	40.6919	0.819190	
16268.6	40.6350	0.796180	
16531.7	40.5734	0.773808	
16799.1	40.5062	0.752056	
17070.8	40.4323	0.730907	
17347.0	40.3499	0.710344	
17627.5	40.2569	0.690352	
17912.6	40.1500	0.670913	
18202.4	40.0245	0.652013	
18496.8	39.8728	0.633637	
18795.9	39.6820	0.615769	
19099.9	39.4272	0.598396	
19408.9	39.0500	0.581504	
19722.8	38.3467	0.565079	
20000.3	30.4385	0.551156	
20000.5	30.4387	3.71490	
20041.8	36.5300	3.70285	
20366.0	38.7994	3.61058	
20695.4	39.4951	3.52009	
21030.1	39.9268	3.43139	
21370.2	40.2410	3.34446	
21715.9	40.4875	3.25930	
22067.1	40.6894	3.17590	
22424.0	40.8595	3.09425	
22786.7	41.0056	3.01432	
23155.3	41.1328	2.93611	
23529.8	41.2449	2.85960	
23910.4	41.3443	2.78477	
24297.1	41.4331	2.71161	
24690.1	41.5127	2.64008	
25089.4	41.5845	2.57017	
25495.2	41.6494	2.50187	
25907.6	41.7082	2.43514	
26326.6	41.7616	2.36996	
26752.5	41.8101	2.30632	
27185.2	41.8543	2.24418	
27624.8	41.8946	2.18352	
28071.7	41.9314	2.12432	
28525.7	41.9651	2.06655	
28987.1	41.9969	2.01019	
29455.9	42.0440	1.95521	
29932.3	42.0207	1.90158	
30000.0	42.0368	1.89415	
