E(eV)	f1	f2
10.0000	-9999.	0.147534E-01
10.1617	-9999.	0.151684E-01
10.3261	-9999.	0.155950E-01
10.4931	-9999.	0.160337E-01
10.6628	-9999.	0.164847E-01
10.8353	-9999.	0.169485E-01
11.0106	-9999.	0.174252E-01
11.1886	-9999.	0.179154E-01
11.3696	-9999.	0.184193E-01
11.5535	-9999.	0.189374E-01
11.7404	-9999.	0.194701E-01
11.9303	-9999.	0.200178E-01
12.1232	-9999.	0.205809E-01
12.3193	-9999.	0.211598E-01
12.5186	-9999.	0.217550E-01
12.7210	-9999.	0.223670E-01
12.9268	-9999.	0.229962E-01
13.1359	-9999.	0.236430E-01
13.3483	-9999.	0.243081E-01
13.5642	-9999.	0.249919E-01
13.7836	-9999.	0.255150E-01
14.0066	-9999.	0.259862E-01
14.2331	-9999.	0.264661E-01
14.4633	-9999.	0.269549E-01
14.6973	-9999.	0.274527E-01
14.9350	-9999.	0.279597E-01
15.1765	-9999.	0.284761E-01
15.4220	-9999.	0.290020E-01
15.6714	-9999.	0.294125E-01
15.9249	-9999.	0.297985E-01
16.1825	-9999.	0.301895E-01
16.4442	-9999.	0.305857E-01
16.7102	-9999.	0.309870E-01
16.9805	-9999.	0.313936E-01
17.2551	-9999.	0.318055E-01
17.5342	-9999.	0.322229E-01
17.8178	-9999.	0.325671E-01
18.1060	-9999.	0.328178E-01
18.3989	-9999.	0.330704E-01
18.6964	-9999.	0.333250E-01
18.9988	-9999.	0.335815E-01
19.3061	-9999.	0.338400E-01
19.6184	-9999.	0.341004E-01
19.9357	-9999.	0.343629E-01
20.2582	-9999.	0.346274E-01
20.5858	-9999.	0.348264E-01
20.9188	-9999.	0.349017E-01
21.2571	-9999.	0.349772E-01
21.6009	-9999.	0.350529E-01
21.9503	-9999.	0.351287E-01
22.3053	-9999.	0.352047E-01
22.6661	-9999.	0.352808E-01
23.0327	-9999.	0.353571E-01
23.4053	-9999.	0.354336E-01
23.7838	-9999.	0.355102E-01
24.1685	-9999.	0.355870E-01
24.5594	-9999.	0.358675E-01
24.9566	-9999.	0.361683E-01
25.3603	-9999.	0.364716E-01
25.7705	-9999.	0.367775E-01
26.1873	-9999.	0.370860E-01
26.6109	-9999.	0.372048E-01
27.0413	-9999.	0.370648E-01
27.4786	-9999.	0.369253E-01
27.9231	-9999.	0.367864E-01
28.3747	-9999.	0.366479E-01
28.8337	-9999.	0.365100E-01
29.3000	-2.03950	0.363726E-01
29.7739	-2.47455	0.362357E-01
30.2555	-3.36315	0.360994E-01
30.4000	-4.05942	0.360590E-01
30.6000	-4.11461	2.39177	
30.7449	-3.47735	2.41235	
31.2421	-2.73139	2.48359	
31.7475	-2.40933	2.55694	
32.2609	-2.20846	2.63245	
32.7827	-2.06454	2.71019	
33.3130	-1.95293	2.79022	
33.8518	-1.86154	2.87263	
34.3993	-1.78343	2.95746	
34.9557	-1.71413	3.04480	
35.5211	-1.65048	3.13471	
36.0956	-1.58983	3.22729	
36.6794	-1.52916	3.32259	
37.2727	-1.46249	3.41755	
37.8755	-1.39993	3.49959	
38.4882	-1.34414	3.58360	
39.1107	-1.29174	3.66962	
39.7432	-1.24091	3.75771	
40.3861	-1.19080	3.84791	
41.0393	-1.14068	3.94028	
41.7031	-1.08995	4.03487	
42.3776	-1.03796	4.13172	
43.0630	-0.984050	4.23091	
43.7595	-0.927363	4.33247	
44.4673	-0.866628	4.43647	
45.1865	-0.797934	4.54297	
45.9174	-0.720079	4.63804	
46.6600	-0.649149	4.72878	
47.4147	-0.580495	4.82129	
48.1816	-0.511218	4.91562	
48.9609	-0.440371	5.01178	
49.7528	-0.366996	5.10983	
50.5576	-0.289843	5.20980	
51.3753	-0.205353	5.31172	
52.2062	-0.113753	5.40276	
53.0506	-0.274963E-01	5.49076	
53.9087	0.570975E-01	5.58020	
54.7806	0.142480	5.67110	
55.6667	0.229379	5.76347	
56.5670	0.318413	5.85735	
57.4820	0.410163	5.95276	
58.4117	0.505472	6.04972	
59.3564	0.605953	6.14826	
60.3165	0.710711	6.24351	
61.2921	0.816965	6.33921	
62.2834	0.926526	6.43637	
63.2908	1.04047	6.53502	
64.3145	1.15981	6.63519	
65.3547	1.28571	6.73689	
66.4118	1.41983	6.84014	
67.4859	1.56454	6.94499	
68.5775	1.72804	7.05143	
69.6867	1.93808	7.13276	
70.8138	2.11892	7.16815	
71.9591	2.28017	7.20372	
73.1230	2.43538	7.23946	
74.3057	2.58724	7.27537	
75.5076	2.73746	7.31147	
76.7289	2.88729	7.34775	
77.9699	3.03778	7.38420	
79.2310	3.18994	7.42084	
80.5125	3.34487	7.45766	
81.8147	3.50402	7.49465	
83.1380	3.66963	7.53184	
84.4827	3.84659	7.56921	
85.8491	4.05244	7.59160	
87.2377	4.24012	7.57278	
88.6487	4.41270	7.55402	
90.0825	4.57752	7.53529	
91.5395	4.73855	7.51662	
93.0201	4.89770	7.49799	
94.5246	5.05663	7.47941	
96.0535	5.21722	7.46088	
97.6071	5.38272	7.44238	
99.1858	5.56287	7.42395	
100.790	5.76027	7.36974	
102.420	5.92746	7.29136	
104.077	6.07806	7.21382	
105.760	6.21847	7.13710	
107.471	6.35123	7.06120	
109.209	6.47782	6.98610	
110.975	6.59919	6.91181	
112.770	6.71608	6.83830	
114.594	6.82905	6.76558	
116.448	6.93857	6.69362	
118.331	7.04510	6.62244	
120.245	7.14905	6.55202	
122.190	7.25111	6.48233	
124.166	7.35243	6.41171	
126.175	7.44995	6.34007	
128.215	7.54438	6.26925	
130.289	7.63664	6.19922	
132.397	7.72710	6.12997	
134.538	7.81608	6.06149	
136.714	7.90397	5.99377	
138.925	7.99117	5.92682	
141.172	8.07824	5.86061	
143.456	8.16605	5.79514	
145.776	8.25638	5.73040	
148.134	8.35595	5.66639	
150.530	8.45437	5.57644	
152.964	8.53980	5.48463	
155.439	8.61598	5.39434	
157.953	8.68701	5.30552	
160.507	8.75383	5.21817	
163.103	8.81713	5.13226	
165.742	8.87736	5.04777	
168.422	8.93490	4.96465	
171.146	8.99006	4.88292	
173.915	9.04309	4.80253	
176.727	9.09424	4.72346	
179.586	9.14374	4.64569	
182.491	9.19183	4.56920	
185.442	9.23877	4.49398	
188.442	9.28488	4.41999	
191.489	9.33065	4.34722	
194.587	9.37694	4.27564	
197.734	9.42700	4.20525	
200.932	9.47721	4.12344	
204.182	9.51989	4.03997	
207.485	9.55672	3.95818	
210.840	9.59030	3.87805	
214.251	9.62118	3.79954	
217.716	9.64978	3.72262	
221.237	9.67639	3.64726	
224.816	9.70123	3.57342	
228.452	9.72450	3.50108	
232.147	9.74638	3.43020	
235.902	9.76703	3.36076	
239.717	9.78660	3.29272	
243.595	9.80525	3.22606	
247.535	9.82320	3.16075	
251.538	9.84068	3.09676	
255.607	9.85812	3.03407	
259.741	9.87783	2.97265	
263.942	9.89789	2.90618	
268.211	9.91284	2.83824	
272.549	9.92460	2.77188	
276.957	9.93420	2.70708	
281.437	9.94206	2.64379	
285.989	9.94845	2.58198	
290.615	9.95356	2.52162	
295.315	9.95754	2.46267	
300.092	9.96050	2.40509	
304.945	9.96254	2.34887	
309.878	9.96376	2.29396	
314.890	9.96422	2.24033	
319.983	9.96402	2.18795	
325.158	9.96323	2.13680	
330.418	9.96195	2.08684	
335.762	9.96028	2.03805	
341.192	9.95838	1.99041	
346.711	9.95734	1.94388	
352.319	9.95588	1.89573	
358.017	9.95232	1.84798	
363.808	9.94743	1.80144	
369.692	9.94158	1.75607	
375.672	9.93492	1.71184	
381.748	9.92757	1.66873	
387.922	9.91958	1.62670	
394.197	9.91101	1.58573	
400.573	9.90191	1.54579	
407.052	9.89231	1.50686	
413.635	9.88223	1.46890	
420.326	9.87171	1.43191	
427.124	9.86076	1.39584	
434.032	9.84939	1.36069	
441.052	9.83762	1.32642	
448.186	9.82544	1.29301	
455.435	9.81287	1.26045	
462.802	9.79988	1.22870	
470.287	9.78647	1.19775	
477.894	9.77233	1.16759	
485.623	9.75786	1.13889	
493.478	9.74347	1.11108	
501.459	9.72898	1.08395	
509.570	9.71428	1.05744	
517.812	9.69932	1.03155	
526.187	9.68408	1.00629	
534.698	9.66853	0.981590	
543.346	9.65271	0.957444	
552.134	9.63644	0.933713	
561.065	9.61965	0.910558	
570.139	9.60243	0.887949	
579.361	9.58457	0.865735	
588.732	9.56605	0.844073	
598.254	9.54575	0.823237	
607.930	9.52566	0.804790	
617.763	9.50632	0.787093	
627.755	9.48803	0.769875	
637.908	9.47032	0.751284	
648.226	9.45186	0.730662	
658.711	9.43025	0.709016	
669.365	9.40579	0.688027	
680.191	9.37895	0.669590	
691.193	9.35176	0.653119	
702.372	9.32520	0.637470	
713.733	9.29807	0.621030	
725.277	9.26898	0.604227	
737.008	9.23798	0.587853	
748.928	9.20514	0.571943	
761.042	9.17037	0.556473	
773.351	9.13354	0.541370	
785.859	9.09436	0.526506	
798.570	9.05237	0.511915	
811.486	9.00730	0.497760	
824.611	8.95881	0.483985	
837.949	8.90639	0.470581	
851.502	8.84948	0.457646	
865.274	8.78742	0.445154	
879.269	8.71942	0.433081	
893.491	8.64432	0.421336	
907.943	8.56067	0.409910	
922.628	8.46670	0.398795	
937.551	8.35944	0.387375	
952.715	8.23504	0.376134	
968.124	8.08800	0.365090	
983.783	7.91008	0.354370	
999.695	7.68757	0.343972	
1015.86	7.39535	0.333887	
1032.29	6.97970	0.324144	
1048.99	6.28827	0.314686	
1065.96	4.35430	0.305505	
1070.70	-0.861678	0.303012	
1070.90	-0.858176	4.56315	
1083.20	5.77584	4.48199	
1100.72	7.05429	4.37039	
1118.52	7.74835	4.26157	
1136.61	8.23083	4.15551	
1155.	8.60108	4.05207	
1173.68	8.90076	3.95118	
1192.66	9.15156	3.85283	
1211.95	9.36631	3.75692	
1231.55	9.55317	3.66337	
1251.47	9.71780	3.57219	
1271.72	9.86424	3.48328	
1292.29	9.99550	3.39658	
1313.19	10.1139	3.31201	
1334.43	10.2211	3.22955	
1356.01	10.3186	3.14913	
1377.94	10.4077	3.07076	
1400.23	10.4894	2.99433	
1422.88	10.5643	2.91977	
1445.89	10.6333	2.84711	
1469.28	10.6969	2.77625	
1493.04	10.7556	2.70714	
1517.19	10.8099	2.63981	
1541.73	10.8602	2.57417	
1566.67	10.9070	2.51017	
1592.01	10.9504	2.44775	
1617.76	10.9908	2.38689	
1643.92	11.0286	2.32756	
1670.51	11.0639	2.26967	
1697.53	11.0970	2.21324	
1724.99	11.1289	2.15824	
1752.89	11.1588	2.10256	
1781.24	11.1861	2.04765	
1810.05	11.2107	1.99371	
1839.32	11.2329	1.94119	
1869.07	11.2533	1.89005	
1899.30	11.2719	1.84025	
1930.02	11.2890	1.79176	
1961.24	11.3047	1.74456	
1992.96	11.3189	1.69862	
2025.20	11.3327	1.65480	
2057.95	11.3459	1.61025	
2091.24	11.3574	1.56664	
2125.06	11.3676	1.52408	
2159.43	11.3766	1.48254	
2194.36	11.3847	1.44197	
2229.85	11.3918	1.40236	
2265.92	11.3981	1.36373	
2302.57	11.4035	1.32597	
2339.81	11.4080	1.28918	
2377.66	11.4119	1.25329	
2416.11	11.4151	1.21828	
2455.19	11.4176	1.18414	
2494.90	11.4196	1.15087	
2535.26	11.4209	1.11842	
2576.26	11.4217	1.08680	
2617.93	11.4221	1.05600	
2660.27	11.4220	1.02598	
2703.30	11.4214	0.996722	
2747.03	11.4204	0.968234	
2791.46	11.4191	0.940485	
2836.61	11.4173	0.913468	
2882.49	11.4153	0.887163	
2929.11	11.4130	0.861554	
2976.48	11.4103	0.836624	
3024.63	11.4074	0.812351	
3073.55	11.4043	0.788746	
3123.26	11.4010	0.765755	
3173.78	11.3974	0.743395	
3225.11	11.3937	0.721644	
3277.27	11.3897	0.700476	
3330.28	11.3856	0.679893	
3384.15	11.3814	0.659883	
3438.88	11.3771	0.640411	
3494.50	11.3726	0.621488	
3551.02	11.3680	0.603067	
3608.46	11.3633	0.585176	
3666.82	11.3586	0.567775	
3726.13	11.3537	0.550867	
3786.40	11.3488	0.534432	
3847.64	11.3439	0.518461	
3909.87	11.3389	0.502941	
3973.11	11.3339	0.487859	
4037.38	11.3288	0.473204	
4102.68	11.3237	0.458952	
4169.03	11.3186	0.445127	
4236.46	11.3135	0.431680	
4304.98	11.3083	0.418640	
4374.62	11.3032	0.405953	
4445.37	11.2981	0.393637	
4517.27	11.2930	0.381676	
4590.33	11.2879	0.370061	
4664.58	11.2828	0.358789	
4740.03	11.2777	0.347849	
4816.69	11.2727	0.337226	
4894.60	11.2677	0.326910	
4973.77	11.2628	0.316871	
5054.21	11.2578	0.307154	
5135.96	11.2529	0.297721	
5219.03	11.2481	0.288568	
5303.44	11.2433	0.279665	
5389.22	11.2386	0.271038	
5476.39	11.2338	0.262663	
5564.97	11.2292	0.254539	
5654.98	11.2246	0.246653	
5746.44	11.2200	0.239003	
5839.39	11.2155	0.231581	
5933.83	11.2111	0.224381	
6029.81	11.2067	0.217395	
6127.33	11.2023	0.210617	
6226.44	11.1981	0.204045	
6327.15	11.1938	0.197670	
6429.48	11.1897	0.191485	
6533.48	11.1856	0.185487	
6639.15	11.1815	0.179670	
6746.54	11.1776	0.174028	
6855.65	11.1736	0.168557	
6966.54	11.1698	0.163253	
7079.22	11.1660	0.158110	
7193.72	11.1622	0.153120	
7310.07	11.1586	0.148287	
7428.31	11.1550	0.143596	
7548.45	11.1514	0.139051	
7670.54	11.1479	0.134644	
7794.61	11.1445	0.130374	
7920.68	11.1411	0.126234	
8048.79	11.1378	0.122218	
8178.98	11.1345	0.118330	
8311.26	11.1313	0.114557	
8445.69	11.1282	0.110903	
8582.29	11.1251	0.107363	
8721.11	11.1221	0.103929	
8862.16	11.1191	0.100602	
9005.50	11.1162	0.973804E-01
9151.16	11.1133	0.942536E-01
9299.17	11.1105	0.912268E-01
9449.58	11.1078	0.882941E-01
9602.42	11.1051	0.854530E-01
9757.73	11.1024	0.827005E-01
9915.55	11.0999	0.800322E-01
10075.9	11.0973	0.774482E-01
10238.9	11.0948	0.749450E-01
10404.5	11.0924	0.725201E-01
10572.8	11.0900	0.701711E-01
10743.8	11.0877	0.678958E-01
10917.6	11.0854	0.656919E-01
11094.2	11.0831	0.635572E-01
11273.6	11.0810	0.614898E-01
11455.9	11.0788	0.594875E-01
11641.2	11.0767	0.575483E-01
11829.5	11.0746	0.556703E-01
12020.8	11.0726	0.538517E-01
12215.3	11.0707	0.520907E-01
12412.8	11.0687	0.503855E-01
12613.6	11.0668	0.487343E-01
12817.6	11.0650	0.471356E-01
13025.0	11.0632	0.455877E-01
13235.6	11.0614	0.440890E-01
13449.7	11.0597	0.426382E-01
13667.2	11.0580	0.412335E-01
13888.3	11.0564	0.398738E-01
14112.9	11.0548	0.385575E-01
14341.2	11.0532	0.372834E-01
14573.1	11.0516	0.360501E-01
14808.9	11.0501	0.348564E-01
15048.4	11.0487	0.337010E-01
15291.8	11.0472	0.325828E-01
15539.1	11.0458	0.315006E-01
15790.4	11.0445	0.304532E-01
16045.8	11.0431	0.294397E-01
16305.4	11.0418	0.284589E-01
16569.1	11.0405	0.275099E-01
16837.1	11.0393	0.265915E-01
17109.4	11.0381	0.257030E-01
17386.1	11.0369	0.248433E-01
17667.4	11.0357	0.240116E-01
17953.1	11.0346	0.232069E-01
18243.5	11.0335	0.224285E-01
18538.6	11.0324	0.216755E-01
18838.4	11.0313	0.209470E-01
19143.1	11.0303	0.202424E-01
19452.7	11.0293	0.195609E-01
19767.4	11.0283	0.189017E-01
20087.1	11.0273	0.182679E-01
20412.0	11.0264	0.176514E-01
20742.1	11.0255	0.170554E-01
21077.6	11.0246	0.164792E-01
21418.5	11.0237	0.159221E-01
21765.0	11.0229	0.153835E-01
22117.0	11.0221	0.148628E-01
22474.7	11.0213	0.143595E-01
22838.2	11.0205	0.138729E-01
23207.6	11.0197	0.134024E-01
23583.0	11.0190	0.129476E-01
23964.4	11.0182	0.125080E-01
24352.0	11.0175	0.120830E-01
24745.9	11.0168	0.116721E-01
25146.2	11.0162	0.112749E-01
25552.9	11.0155	0.108910E-01
25966.2	11.0149	0.105198E-01
26386.1	11.0142	0.101610E-01
26812.9	11.0136	0.981422E-02
27246.6	11.0130	0.947897E-02
27687.3	11.0125	0.915492E-02
28135.1	11.0119	0.884169E-02
28590.2	11.0113	0.853893E-02
29052.6	11.0108	0.824628E-02
29522.5	11.0103	0.796342E-02
30000.0	11.0098	0.769003E-02
