E(eV)	f1	f2
10.0000	-9999.	2.56685	
10.1617	-9999.	2.66209	
10.3261	-9999.	2.76087	
10.4931	-9999.	2.86331	
10.6628	-9999.	2.96956	
10.8353	-9999.	3.07974	
11.0106	-9999.	3.19401	
11.1886	-9999.	3.31252	
11.3696	-9999.	3.42326	
11.5535	-9999.	3.51200	
11.7404	-9999.	3.60305	
11.9303	-9999.	3.69645	
12.1232	-9999.	3.79228	
12.3193	-9999.	3.89059	
12.5186	-9999.	3.99145	
12.7210	-9999.	4.09492	
12.9268	-9999.	4.19732	
13.1359	-9999.	4.29578	
13.3483	-9999.	4.39654	
13.5642	-9999.	4.49967	
13.7836	-9999.	4.60521	
14.0066	-9999.	4.71323	
14.2331	-9999.	4.82379	
14.4633	-9999.	4.92204	
14.6973	-9999.	4.99540	
14.9350	-9999.	5.06985	
15.1765	-9999.	5.14542	
15.4220	-9999.	5.22211	
15.6714	-9999.	5.29994	
15.9249	-9999.	5.36144	
16.1825	-9999.	5.40803	
16.4442	-9999.	5.45502	
16.7102	-9999.	5.50243	
16.9805	-9999.	5.55024	
17.2551	-9999.	5.52629	
17.5342	-9999.	5.49985	
17.8178	-9999.	5.47353	
18.1060	-9999.	5.44735	
18.3989	-9999.	5.42129	
18.6964	-9999.	5.35934	
18.9988	-9999.	5.22402	
19.3061	-9999.	5.09212	
19.6184	-9999.	4.96355	
19.9357	-9999.	4.83823	
20.2582	-9999.	4.71607	
20.5858	-9999.	4.57132	
20.9188	-9999.	4.42631	
21.2571	-9999.	4.28590	
21.6009	-9999.	4.14994	
21.9503	-9999.	4.01830	
22.3053	-9999.	3.89083	
22.6661	-9999.	3.78365	
23.0327	-9999.	3.68358	
23.4053	-9999.	3.58615	
23.7838	-9999.	3.49131	
24.1685	-9999.	3.39896	
24.5594	-9999.	3.32114	
24.9566	-9999.	3.26923	
25.3603	-9999.	3.21814	
25.7705	-9999.	3.16785	
26.1873	-9999.	3.11835	
26.6109	-9999.	3.09552	
27.0413	-9999.	3.08913	
27.4786	-9999.	3.08276	
27.9231	-9999.	3.07640	
28.3747	-9999.	3.08935	
28.8337	-9999.	3.16044	
29.3000	3.65589	3.23316	
29.7739	3.28421	3.35858	
30.2555	2.94113	3.56089	
30.7449	2.58333	3.77537	
31.2421	2.15063	4.06135	
31.7475	1.77528	4.47181	
32.2609	1.44276	4.92376	
32.7827	1.13375	5.42138	
33.3130	0.845374	5.96928	
33.8518	0.574920	6.57256	
34.3993	0.312846	7.23682	
34.9557	0.309060E-01	8.04643	
35.5211	-0.116685	9.01917	
36.0956	-0.107686	10.1095	
36.6794	0.146301	11.3037	
37.2727	0.570445	12.4075	
37.8755	1.20021	13.6192	
38.4882	2.35458	14.7266	
39.1107	3.52583	15.3002	
39.7432	4.78554	15.6547	
40.3861	5.88594	15.7420	
41.0393	6.78429	15.7278	
41.7031	7.57706	15.7135	
42.3776	8.31831	15.6993	
43.0630	9.03042	15.6850	
43.7595	9.73071	15.6708	
44.4673	10.4357	15.6566	
45.1865	11.1732	15.6424	
45.9174	12.0028	15.6283	
46.6600	12.9126	15.3674	
47.4147	13.6599	15.0138	
48.1816	14.3473	14.6684	
48.9609	15.0367	14.3309	
49.7528	15.8417	13.9371	
50.5576	16.5048	13.2171	
51.3753	16.9841	12.5343	
52.2062	17.3605	11.8868	
53.0506	17.6940	11.2590	
53.9087	17.9449	10.5992	
54.7806	18.1179	9.97803	
55.6667	18.2359	9.39326	
56.5670	18.3131	8.84278	
57.4820	18.3575	8.32454	
58.4117	18.3756	7.83669	
59.3564	18.3729	7.37744	
60.3165	18.3550	6.94508	
61.2921	18.3297	6.53806	
62.2834	18.3166	6.12911	
63.2908	18.2548	5.71452	
64.3145	18.1655	5.32795	
65.3547	18.0587	4.96755	
66.4118	17.9394	4.63153	
67.4859	17.8108	4.31822	
68.5775	17.6756	4.02612	
69.6867	17.5360	3.75377	
70.8138	17.3953	3.49985	
71.9591	17.2616	3.26310	
73.1230	17.1216	3.01378	
74.3057	16.9629	2.78071	
75.5076	16.7949	2.56567	
76.7289	16.6212	2.36726	
77.9699	16.4427	2.18419	
79.2310	16.2576	2.01528	
80.5125	16.0707	1.87098	
81.8147	15.8902	1.73976	
83.1380	15.7116	1.61773	
84.4827	15.5328	1.50427	
85.8491	15.3504	1.39877	
87.2377	15.1543	1.30066	
88.6487	14.9611	1.24613	
90.0825	14.7885	1.19890	
91.5395	14.6243	1.15346	
93.0201	14.4625	1.10975	
94.5246	14.2959	1.07194	
96.0535	14.1335	1.04477	
97.6071	13.9637	1.01829	
99.1858	13.7936	1.02779	
100.790	13.6424	1.04439	
102.420	13.4997	1.06431	
104.077	13.3678	1.08972	
105.760	13.2437	1.11574	
107.471	13.1230	1.14238	
109.209	13.0075	1.17622	
110.975	12.8987	1.21118	
112.770	12.7956	1.24718	
114.594	12.6984	1.28425	
116.448	12.6072	1.31759	
118.331	12.5154	1.34875	
120.245	12.4237	1.38065	
122.190	12.3329	1.41329	
124.166	12.2430	1.44671	
126.175	12.1540	1.48092	
128.215	12.0657	1.51594	
130.289	11.9784	1.55179	
132.397	11.8938	1.58849	
134.538	11.8089	1.62010	
136.714	11.7208	1.65170	
138.925	11.6305	1.68392	
141.172	11.5384	1.71676	
143.456	11.4443	1.75025	
145.776	11.3483	1.78439	
148.134	11.2507	1.81919	
150.530	11.1544	1.85352	
152.964	11.0523	1.88106	
155.439	10.9427	1.90901	
157.953	10.8270	1.93737	
160.507	10.7050	1.96616	
163.103	10.5773	1.99521	
165.742	10.4406	2.02065	
168.422	10.2929	2.04629	
171.146	10.1329	2.07219	
173.915	9.95887	2.09843	
176.727	9.76589	2.12499	
179.586	9.55397	2.16023	
182.491	9.32097	2.19828	
185.442	9.05806	2.25268	
188.442	8.78371	2.32435	
191.489	8.48045	2.39830	
194.587	8.13659	2.50013	
197.734	7.77283	2.64962	
200.932	7.38003	2.80911	
204.182	6.96546	3.03219	
207.485	6.52531	3.26360	
210.840	5.98241	3.51267	
214.251	5.40330	3.99318	
217.716	4.82148	4.57096	
221.237	4.31803	5.33099	
224.816	3.91986	6.21889	
228.452	3.73787	7.25768	
232.147	3.80764	8.17174	
235.902	3.83946	8.98427	
239.717	3.91127	9.87761	
243.595	4.21271	10.8251	
247.535	4.56163	11.5923	
251.538	5.03425	12.4139	
255.607	5.61515	12.9857	
259.741	6.09081	13.4529	
263.942	6.56845	13.9370	
268.211	7.02385	14.3084	
272.549	7.44485	14.6892	
276.957	7.85801	15.0802	
281.437	8.30906	15.4815	
285.989	8.77446	15.7975	
290.615	9.21280	16.1001	
295.315	9.63811	16.4085	
300.092	10.0750	16.7228	
304.945	10.5708	17.0174	
309.878	11.0473	17.2581	
314.890	11.5107	17.5022	
319.983	11.9935	17.7497	
325.158	12.5784	18.0007	
330.418	13.1951	18.0465	
335.762	13.6628	17.9948	
341.192	13.9951	17.9432	
346.711	14.2543	18.0412	
352.319	14.5586	18.1968	
358.017	14.9060	18.3538	
363.808	15.2672	18.5122	
369.692	15.6413	18.6719	
375.672	16.0291	18.8330	
381.748	16.4333	18.9955	
387.922	16.8592	19.1594	
394.197	17.3206	19.3247	
400.573	17.8734	19.4494	
407.052	18.3710	19.4552	
413.635	18.8265	19.4610	
420.326	19.2638	19.4669	
427.124	19.6917	19.4727	
434.032	20.1153	19.4786	
441.052	20.5395	19.4844	
448.186	20.9707	19.4903	
455.435	21.4280	19.4961	
462.802	21.8985	19.4360	
470.287	22.3359	19.3486	
477.894	22.7438	19.2615	
485.623	23.1399	19.1749	
493.478	23.5281	19.0886	
501.459	23.9115	19.0027	
509.570	24.2929	18.9172	
517.812	24.6755	18.8321	
526.187	25.0637	18.7474	
534.698	25.4610	18.6630	
543.346	25.9374	18.5671	
552.134	26.3759	18.3448	
561.065	26.7474	18.1252	
570.139	27.0915	17.9082	
579.361	27.4151	17.6938	
588.732	27.7223	17.4820	
598.254	28.0158	17.2727	
607.930	28.2974	17.0659	
617.763	28.5686	16.8616	
627.755	28.8307	16.6597	
637.908	29.0846	16.4602	
648.226	29.3312	16.2632	
658.711	29.5715	16.0685	
669.365	29.8061	15.8761	
680.191	30.0359	15.6860	
691.193	30.2618	15.4982	
702.372	30.4850	15.3127	
713.733	30.7068	15.1294	
725.277	30.9299	14.9483	
737.008	31.1654	14.7693	
748.928	31.3946	14.5570	
761.042	31.6082	14.3442	
773.351	31.8099	14.1345	
785.859	32.0061	13.9279	
798.570	32.1994	13.7243	
811.486	32.3926	13.5236	
824.611	32.5905	13.3260	
837.949	32.8033	13.1311	
851.502	33.0668	12.8911	
865.274	33.2802	12.5746	
879.269	33.4278	12.2659	
893.491	33.5442	11.9647	
907.943	33.6361	11.6805	
922.628	33.7036	11.4059	
937.551	33.7564	11.1668	
952.715	33.8143	10.9462	
968.124	33.8779	10.7294	
983.783	33.9396	10.5171	
999.695	33.9992	10.3084	
1015.86	34.0568	10.1034	
1032.29	34.1117	9.89893	
1048.99	34.1629	9.69527	
1065.96	34.2066	9.49228	
1083.20	34.2439	9.29351	
1100.72	34.2759	9.09891	
1118.52	34.3031	8.90840	
1136.61	34.3260	8.72189	
1155.	34.3447	8.53934	
1173.68	34.3598	8.36071	
1192.66	34.3712	8.18562	
1211.95	34.3792	8.01420	
1231.55	34.3846	7.84637	
1251.47	34.3875	7.68037	
1271.72	34.3872	7.51584	
1292.29	34.3813	7.35234	
1313.19	34.3703	7.19247	
1334.43	34.3550	7.03610	
1356.01	34.3357	6.88313	
1377.94	34.3126	6.73349	
1400.23	34.2860	6.58711	
1422.88	34.2562	6.44390	
1445.89	34.2235	6.30366	
1469.28	34.1891	6.16506	
1493.04	34.1534	6.02740	
1517.19	34.1106	5.88320	
1541.73	34.0584	5.74116	
1566.67	33.9977	5.60259	
1592.01	33.9299	5.46757	
1617.76	33.8552	5.33575	
1643.92	33.7733	5.20694	
1670.51	33.6838	5.08124	
1697.53	33.5864	4.95865	
1724.99	33.4796	4.83916	
1752.89	33.3641	4.72470	
1781.24	33.2402	4.61365	
1810.05	33.1066	4.50565	
1839.32	32.9623	4.40039	
1869.07	32.8057	4.29760	
1899.30	32.6348	4.19716	
1930.02	32.4475	4.09906	
1961.24	32.2412	4.00326	
1992.96	32.0125	3.90969	
2025.20	31.7556	3.81809	
2057.95	31.4665	3.73130	
2091.24	31.1387	3.64707	
2125.06	30.7610	3.56538	
2159.43	30.3175	3.48606	
2194.36	29.7840	3.40925	
2229.85	29.1199	3.33475	
2265.92	28.2479	3.26250	
2302.57	26.9916	3.19248	
2339.81	24.7379	3.12463	
2370.40	9.50284	3.07077	
2370.60	9.50482	11.3846	
2377.66	20.7176	11.3328	
2416.11	25.0802	11.0570	
2455.19	24.7669	10.7876	
2464.60	19.2062	10.7244	
2464.80	19.2131	14.7781	
2494.90	27.4023	14.5323	
2535.26	29.2837	14.2136	
2576.26	30.4376	13.9019	
2617.93	31.2162	13.5973	
2660.27	31.6238	13.2990	
2697.60	28.8304	13.0452	
2697.80	28.8341	14.8700	
2703.30	31.2653	14.8276	
2747.03	33.1711	14.4982	
2791.46	34.1005	14.1751	
2836.61	34.8210	13.8565	
2882.49	35.4269	13.5426	
2929.11	35.9539	13.2330	
2976.48	36.4204	12.9281	
3024.63	36.8385	12.6280	
3073.55	37.2161	12.3327	
3123.26	37.5592	12.0423	
3173.78	37.8722	11.7569	
3225.11	38.1588	11.4767	
3277.27	38.4218	11.2013	
3330.28	38.6637	10.9311	
3384.15	38.8865	10.6660	
3438.88	39.0920	10.4060	
3494.50	39.2820	10.1508	
3551.02	39.4572	9.90020	
3608.46	39.6185	9.65484	
3666.82	39.7674	9.41477	
3726.13	39.9053	9.17987	
3786.40	40.0329	8.94941	
3847.64	40.1502	8.72360	
3909.87	40.2582	8.50283	
3973.11	40.3577	8.28684	
4037.38	40.4492	8.07553	
4102.68	40.5333	7.86887	
4169.03	40.6103	7.66678	
4236.46	40.6808	7.46921	
4304.98	40.7452	7.27619	
4374.62	40.8037	7.08744	
4445.37	40.8569	6.90311	
4517.27	40.9050	6.72304	
4590.33	40.9484	6.54715	
4664.58	40.9873	6.37543	
4740.03	41.0220	6.20773	
4816.69	41.0527	6.04409	
4894.60	41.0798	5.88433	
4973.77	41.1033	5.72842	
5054.21	41.1236	5.57623	
5135.96	41.1408	5.42782	
5219.03	41.1551	5.28304	
5303.44	41.1667	5.14184	
5389.22	41.1757	5.00413	
5476.39	41.1823	4.86990	
5564.97	41.1868	4.73899	
5654.98	41.1891	4.61144	
5746.44	41.1895	4.48701	
5839.39	41.1879	4.36576	
5933.83	41.1847	4.24757	
6029.81	41.1798	4.13246	
6127.33	41.1734	4.02024	
6226.44	41.1655	3.91095	
6327.15	41.1563	3.80448	
6429.48	41.1459	3.70072	
6533.48	41.1342	3.59976	
6639.15	41.1215	3.50134	
6746.54	41.1078	3.40554	
6855.65	41.0931	3.31225	
6966.54	41.0776	3.22140	
7079.22	41.0612	3.13295	
7193.72	41.0440	3.04680	
7310.07	41.0261	2.96296	
7428.31	41.0074	2.88131	
7548.45	40.9882	2.80200	
7670.54	40.9684	2.72467	
7794.61	40.9480	2.64944	
7920.68	40.9271	2.57624	
8048.79	40.9058	2.50498	
8178.98	40.8840	2.43560	
8311.26	40.8617	2.36808	
8445.69	40.8390	2.30247	
8582.29	40.8160	2.23858	
8721.11	40.7925	2.17642	
8862.16	40.7687	2.11602	
9005.50	40.7447	2.05730	
9151.16	40.7203	2.00004	
9299.17	40.6956	1.94440	
9449.58	40.6706	1.89027	
9602.42	40.6453	1.83763	
9757.73	40.6197	1.78644	
9915.55	40.5938	1.73664	
10075.9	40.5676	1.68821	
10238.9	40.5411	1.64112	
10404.5	40.5143	1.59532	
10572.8	40.4871	1.55078	
10743.8	40.4596	1.50747	
10917.6	40.4317	1.46535	
11094.2	40.4035	1.42439	
11273.6	40.3748	1.38457	
11455.9	40.3457	1.34585	
11641.2	40.3161	1.30820	
11829.5	40.2859	1.27159	
12020.8	40.2552	1.23600	
12215.3	40.2239	1.20139	
12412.8	40.1918	1.16775	
12613.6	40.1590	1.13504	
12817.6	40.1253	1.10323	
13025.0	40.0906	1.07231	
13235.6	40.0549	1.04225	
13449.7	40.0180	1.01303	
13667.2	39.9797	0.984615	
13888.3	39.9399	0.956994	
14112.9	39.8983	0.930141	
14341.2	39.8548	0.904036	
14573.1	39.8090	0.878656	
14808.9	39.7605	0.853984	
15048.4	39.7091	0.829999	
15291.8	39.6540	0.806682	
15539.1	39.5948	0.784015	
15790.4	39.5305	0.761978	
16045.8	39.4602	0.740555	
16305.4	39.3824	0.719728	
16569.1	39.2953	0.699482	
16837.1	39.1963	0.679799	
17109.4	39.0816	0.660665	
17386.1	38.9456	0.642062	
17667.4	38.7789	0.623977	
17953.1	38.5651	0.606396	
18243.5	38.2701	0.589303	
18538.6	37.8046	0.572686	
18838.4	36.7415	0.556530	
18985.5	29.3743	0.548862	
18985.7	29.3745	3.74502	
19143.1	36.9155	3.69724	
19452.7	38.0837	3.60610	
19767.4	38.6510	3.51666	
20087.1	39.0322	3.42892	
20412.0	39.3196	3.34287	
20742.1	39.5496	3.25853	
21077.6	39.7404	3.17587	
21418.5	39.9026	3.09489	
21765.0	40.0429	3.01558	
22117.0	40.1657	2.93793	
22474.7	40.2742	2.86193	
22838.2	40.3709	2.78755	
23207.6	40.4574	2.71480	
23583.0	40.5353	2.64364	
23964.4	40.6056	2.57406	
24352.0	40.6693	2.50604	
24745.9	40.7271	2.43957	
25146.2	40.7797	2.37462	
25552.9	40.8275	2.31116	
25966.2	40.8711	2.24919	
26386.1	40.9108	2.18867	
26812.9	40.9470	2.12958	
27246.6	40.9801	2.07190	
27687.3	41.0102	2.01561	
28135.1	41.0376	1.96069	
28590.2	41.0627	1.90710	
29052.6	41.0858	1.85482	
29522.5	41.1116	1.80384	
30000.0	41.1094	1.75412	
