E(eV)	f1	f2
10.0000	-9999.	0.244484	
10.1617	-9999.	0.251766	
10.3261	-9999.	0.259264	
10.4931	-9999.	0.266985	
10.6628	-9999.	0.274936	
10.8353	-9999.	0.283124	
11.0106	-9999.	0.291556	
11.1886	-9999.	0.300239	
11.3696	-9999.	0.309181	
11.5535	-9999.	0.318389	
11.7404	-9999.	0.327872	
11.9303	-9999.	0.337636	
12.1232	-9999.	0.347692	
12.3193	-9999.	0.357177	
12.5186	-9999.	0.366207	
12.7210	-9999.	0.375466	
12.9268	-9999.	0.384959	
13.1359	-9999.	0.394692	
13.3483	-9999.	0.404671	
13.5642	-9999.	0.414903	
13.7836	-9999.	0.424290	
14.0066	-9999.	0.433803	
14.2331	-9999.	0.443529	
14.4633	-9999.	0.453472	
14.6973	-9999.	0.463640	
14.9350	-9999.	0.474034	
15.1765	-9999.	0.485487	
15.4220	-9999.	0.498133	
15.6714	-9999.	0.511107	
15.9249	-9999.	0.524420	
16.1825	-9999.	0.538079	
16.4442	-9999.	0.552094	
16.7102	-9999.	0.566475	
16.9805	-9999.	0.580606	
17.2551	-9999.	0.594768	
17.5342	-9999.	0.609276	
17.8178	-9999.	0.624137	
18.1060	-9999.	0.646684	
18.3989	-9999.	0.671013	
18.6964	-9999.	0.709249	
18.9988	-9999.	0.758040	
19.3061	-9999.	0.848453	
19.6184	-9999.	1.06744	
19.9357	-9999.	1.27332	
20.2582	-9999.	1.46377	
20.5858	-9999.	1.64680	
20.9188	-9999.	1.81237	
21.2571	-9999.	1.99459	
21.6009	-9999.	2.33527	
21.9503	-9999.	3.04612	
22.3053	-9999.	3.49011	
22.6661	-9999.	4.14142	
23.0327	-9999.	5.17605	
23.4053	-9999.	6.16114	
23.7838	-9999.	7.15928	
24.1685	-9999.	7.85158	
24.5594	-9999.	8.61083	
24.9566	-9999.	9.82334	
25.3603	-9999.	11.0464	
25.7705	-9999.	11.7224	
26.1873	-9999.	12.3365	
26.6109	-9999.	12.8042	
27.0413	-9999.	13.2404	
27.4786	-9999.	13.3190	
27.9231	-9999.	13.3981	
28.3747	-9999.	13.3420	
28.8337	-9999.	12.8943	
29.3000	9.38600	12.4615	
29.7739	9.92147	12.0196	
30.2555	10.3493	11.5894	
30.7449	10.6922	11.1779	
31.2421	10.9616	10.7826	
31.7475	11.1396	10.4013	
32.2609	11.2595	10.1485	
32.7827	11.4084	9.92065	
33.3130	11.5515	9.69789	
33.8518	11.6623	9.48734	
34.3993	11.7735	9.33629	
34.9557	11.9008	9.18765	
35.5211	12.0344	9.04138	
36.0956	12.1723	8.88657	
36.6794	12.2960	8.72676	
37.2727	12.4115	8.56983	
37.8755	12.5214	8.41250	
38.4882	12.6266	8.25626	
39.1107	12.7408	8.08883	
39.7432	12.8214	7.89087	
40.3861	12.8685	7.69774	
41.0393	12.8849	7.50934	
41.7031	12.8713	7.34780	
42.3776	12.8431	7.19795	
43.0630	12.7673	7.05117	
43.7595	12.6944	7.02900	
44.4673	12.6718	7.00998	
45.1865	12.6724	6.99101	
45.9174	12.6906	6.97211	
46.6600	12.7209	6.93785	
47.4147	12.7460	6.89798	
48.1816	12.7695	6.85834	
48.9609	12.7922	6.81893	
49.7528	12.8136	6.77974	
50.5576	12.8330	6.74078	
51.3753	12.8486	6.70509	
52.2062	12.8662	6.67271	
53.0506	12.8841	6.64049	
53.9087	12.9015	6.60842	
54.7806	12.9180	6.57633	
55.6667	12.9328	6.54395	
56.5670	12.9458	6.51174	
57.4820	12.9567	6.47968	
58.4117	12.9654	6.44778	
59.3564	12.9716	6.41605	
60.3165	12.9753	6.38446	
61.2921	12.9761	6.35303	
62.2834	12.9738	6.32176	
63.2908	12.9684	6.29064	
64.3145	12.9594	6.25967	
65.3547	12.9468	6.22886	
66.4118	12.9302	6.19820	
67.4859	12.9094	6.16769	
68.5775	12.8840	6.13732	
69.6867	12.8537	6.10711	
70.8138	12.8184	6.07750	
71.9591	12.7779	6.04806	
73.1230	12.7317	6.01877	
74.3057	12.6796	5.98962	
75.5076	12.6209	5.96062	
76.7289	12.5555	5.93176	
77.9699	12.4829	5.90303	
79.2310	12.4029	5.87444	
80.5125	12.3158	5.84599	
81.8147	12.2237	5.81768	
83.1380	12.1331	5.77593	
84.4827	12.0138	5.71854	
85.8491	11.8713	5.66173	
87.2377	11.7075	5.60548	
88.6487	11.5218	5.54979	
90.0825	11.3128	5.49464	
91.5395	11.0804	5.44005	
93.0201	10.8322	5.37899	
94.5246	10.5314	5.29125	
96.0535	10.1552	5.21216	
97.6071	9.74159	5.17421	
99.1858	9.28917	5.13654	
100.790	8.77535	5.10169	
102.420	8.19357	5.07562	
104.077	7.52319	5.04969	
105.760	6.72969	5.02390	
107.471	5.77393	5.01946	
109.209	4.58498	5.02246	
110.975	2.83310	5.02546	
112.770	0.857600	6.34994	
114.594	0.349530E-01	7.47349	
116.448	-0.675786	7.69357	
118.331	-4.04398	7.12416	
120.245	-10.2082	10.0028	
122.190	-14.3529	16.5170	
124.166	-15.9152	25.8729	
126.175	-11.6855	35.7180	
128.215	-6.26161	40.4469	
130.289	0.382138	45.8018	
132.397	8.66970	47.3493	
134.538	16.2755	46.2231	
136.714	21.6282	43.8851	
138.925	26.1873	40.9195	
141.172	29.2001	37.5134	
143.456	31.2653	34.3906	
145.776	32.6920	31.5279	
148.134	33.6528	28.9762	
150.530	34.3414	26.6744	
152.964	34.7930	24.5554	
155.439	35.0428	22.6048	
157.953	35.1084	20.8092	
160.507	35.0143	19.2228	
163.103	34.8648	17.7999	
165.742	34.6587	16.4823	
168.422	34.3782	15.2622	
171.146	34.0138	14.1325	
173.915	33.5219	13.1544	
176.727	33.0844	12.3516	
179.586	32.6523	11.5978	
182.491	32.1819	10.8900	
185.442	31.5751	10.2892	
188.442	31.0838	9.94334	
191.489	30.6804	9.60909	
194.587	30.3183	9.28607	
197.734	29.9697	8.97391	
200.932	29.6163	8.67225	
204.182	29.2257	8.38072	
207.485	28.7266	8.22025	
210.840	28.3514	8.20320	
214.251	28.0789	8.18619	
217.716	27.8481	8.16921	
221.237	27.6486	8.15227	
224.816	27.4731	8.13536	
228.452	27.3165	8.11849	
232.147	27.1748	8.10165	
235.902	27.0448	8.08485	
239.717	26.9237	8.06808	
243.595	26.8088	8.05134	
247.535	26.6972	8.03465	
251.538	26.5856	8.01799	
255.607	26.4686	8.00136	
259.741	26.3096	7.98856	
263.942	26.1707	8.05993	
268.211	26.0713	8.13192	
272.549	25.9910	8.20457	
276.957	25.9240	8.27786	
281.437	25.8672	8.35180	
285.989	25.8179	8.42641	
290.615	25.7734	8.50168	
295.315	25.7198	8.57762	
300.092	25.6718	8.68811	
304.945	25.6498	8.80960	
309.878	25.6460	8.93279	
314.890	25.6573	9.05771	
319.983	25.6830	9.18437	
325.158	25.7233	9.31280	
330.418	25.7800	9.44303	
335.762	25.8572	9.57508	
341.192	25.9758	9.69649	
346.711	26.0862	9.77427	
352.319	26.1919	9.85266	
358.017	26.3027	9.93169	
363.808	26.4281	10.0113	
369.692	26.5967	10.0604	
375.672	26.7369	10.0599	
381.748	26.8468	10.0594	
387.922	26.9463	10.0589	
394.197	27.0374	10.0584	
400.573	27.1210	10.0578	
407.052	27.1970	10.0573	
413.635	27.2634	10.0568	
420.326	27.3005	10.0718	
427.124	27.3546	10.1197	
434.032	27.4290	10.1678	
441.052	27.5121	10.2162	
448.186	27.6042	10.2647	
455.435	27.7062	10.3136	
462.802	27.8456	10.3608	
470.287	27.9763	10.3491	
477.894	28.0829	10.3375	
485.623	28.1802	10.3258	
493.478	28.2715	10.3142	
501.459	28.3583	10.3025	
509.570	28.4416	10.2909	
517.812	28.5222	10.2794	
526.187	28.6010	10.2678	
534.698	28.6787	10.2562	
543.346	28.7642	10.2439	
552.134	28.8435	10.2138	
561.065	28.9121	10.1838	
570.139	28.9752	10.1538	
579.361	29.0341	10.1239	
588.732	29.0899	10.0942	
598.254	29.1441	10.0645	
607.930	29.1988	10.0349	
617.763	29.2629	10.0053	
627.755	29.3541	9.95322	
637.908	29.4087	9.84658	
648.226	29.4301	9.74109	
658.711	29.4299	9.63673	
669.365	29.4114	9.53348	
680.191	29.3763	9.43135	
691.193	29.3255	9.33031	
702.372	29.2636	9.23034	
713.733	29.1962	9.12004	
725.277	29.0937	8.98659	
737.008	28.9565	8.85510	
748.928	28.7880	8.72553	
761.042	28.5873	8.59787	
773.351	28.3520	8.47206	
785.859	28.0785	8.34810	
798.570	27.7613	8.22595	
811.486	27.3907	8.10559	
824.611	26.9618	8.00244	
837.949	26.4780	7.90943	
851.502	25.9263	7.81610	
865.274	25.2829	7.72213	
879.269	24.5191	7.62775	
893.491	23.5963	7.53470	
907.943	22.4533	7.44273	
922.628	20.9847	7.35182	
937.551	18.9853	7.26190	
952.715	15.9668	7.17320	
968.124	10.1461	7.08567	
980.300	-25.8273	7.01823	
980.500	-25.8174	30.7219	
983.783	0.859304	30.6554	
999.695	14.3488	30.3385	
1015.86	19.2163	30.0249	
1032.29	22.3241	29.7144	
1048.99	24.6368	29.4026	
1065.96	26.4843	29.0894	
1083.20	28.0232	28.7791	
1100.72	29.3419	28.4723	
1118.52	30.4927	28.1687	
1136.61	31.5091	27.8684	
1155.	32.4129	27.5713	
1173.68	33.2178	27.2773	
1192.66	33.9308	26.9865	
1211.95	34.5560	26.6988	
1231.55	35.0253	26.4141	
1251.47	35.4044	26.2596	
1271.72	35.7000	26.2460	
1292.29	36.0786	26.4066	
1313.19	36.5792	26.5685	
1334.43	37.1219	26.7313	
1356.01	37.7021	26.8951	
1377.94	38.3188	27.0598	
1400.23	38.9752	27.2255	
1422.88	39.6786	27.3925	
1445.89	40.4682	27.5602	
1469.28	41.3426	27.6703	
1493.04	42.4056	27.6910	
1517.19	43.3936	27.3355	
1541.73	44.1311	26.9327	
1566.67	44.5910	26.5355	
1592.01	45.2242	26.6854	
1617.76	46.2797	26.6496	
1643.92	47.2114	26.0927	
1670.51	47.9308	25.5476	
1697.53	48.5550	25.0139	
1724.99	49.1179	24.4911	
1752.89	49.6298	23.9680	
1781.24	50.0955	23.4524	
1810.05	50.5201	22.9454	
1839.32	50.9101	22.4491	
1869.07	51.2701	21.9636	
1899.30	51.6038	21.4888	
1930.02	51.9139	21.0240	
1961.24	52.2032	20.5692	
1992.96	52.4700	20.1243	
2025.20	52.7263	19.6972	
2057.95	52.9696	19.2645	
2091.24	53.1932	18.8393	
2125.06	53.3999	18.4230	
2159.43	53.5920	18.0145	
2194.36	53.7704	17.6142	
2229.85	53.9359	17.2215	
2265.92	54.0892	16.8368	
2302.57	54.2311	16.4598	
2339.81	54.3625	16.0907	
2377.66	54.4839	15.7286	
2416.11	54.5951	15.3739	
2455.19	54.6974	15.0270	
2494.90	54.7909	14.6870	
2535.26	54.8765	14.3546	
2576.26	54.9545	14.0286	
2617.93	55.0249	13.7097	
2660.27	55.0883	13.3972	
2703.30	55.1450	13.0916	
2747.03	55.1951	12.7922	
2791.46	55.2391	12.4994	
2836.61	55.2772	12.2128	
2882.49	55.3096	11.9324	
2929.11	55.3365	11.6580	
2976.48	55.3583	11.3898	
3024.63	55.3751	11.1271	
3073.55	55.3871	10.8703	
3123.26	55.3946	10.6191	
3173.78	55.3974	10.3730	
3225.11	55.3957	10.1325	
3277.27	55.3897	9.89734	
3330.28	55.3796	9.66730	
3384.15	55.3654	9.44227	
3438.88	55.3471	9.22229	
3494.50	55.3249	9.00711	
3551.02	55.2987	8.79672	
3608.46	55.2687	8.59094	
3666.82	55.2348	8.38972	
3726.13	55.1969	8.19303	
3786.40	55.1552	8.00057	
3847.64	55.1095	7.81246	
3909.87	55.0596	7.62852	
3973.11	55.0057	7.44875	
4037.38	54.9476	7.27286	
4102.68	54.8850	7.10092	
4169.03	54.8178	6.93282	
4236.46	54.7458	6.76845	
4304.98	54.6687	6.60781	
4374.62	54.5863	6.45068	
4445.37	54.4981	6.29709	
4517.27	54.4036	6.14683	
4590.33	54.3024	6.00002	
4664.58	54.1939	5.85642	
4740.03	54.0771	5.71608	
4816.69	53.9515	5.57886	
4894.60	53.8157	5.44470	
4973.77	53.6686	5.31339	
5054.21	53.5083	5.18514	
5135.96	53.3329	5.05973	
5219.03	53.1399	4.93713	
5303.44	52.9259	4.81724	
5389.22	52.6865	4.69991	
5476.39	52.4157	4.58522	
5564.97	52.1050	4.47313	
5654.98	51.7422	4.36354	
5746.44	51.3081	4.25634	
5839.39	50.7700	4.15152	
5933.83	50.0657	4.04902	
6029.81	49.0497	3.94875	
6127.33	47.2044	3.85081	
6207.80	31.7487	3.77297	
6208.	31.7498	11.0531	
6226.44	43.8759	10.9923	
6327.15	48.1261	10.6691	
6429.48	49.3300	10.3557	
6533.48	49.7840	10.0514	
6639.15	49.5221	9.75605	
6721.40	42.2022	9.53530	
6721.60	42.2035	13.1642	
6746.54	48.7031	13.0766	
6855.65	51.0062	12.7039	
6966.54	51.8556	12.3419	
7079.22	52.0080	11.9902	
7125.90	49.0533	11.8491	
7126.10	49.0562	13.5465	
7193.72	52.8043	13.3659	
7310.07	53.8693	13.0645	
7428.31	54.5943	12.7674	
7548.45	55.1767	12.4744	
7670.54	55.6703	12.1855	
7794.61	56.0998	11.9013	
7920.68	56.4798	11.6218	
8048.79	56.8197	11.3465	
8178.98	57.1254	11.0758	
8311.26	57.4023	10.8099	
8445.69	57.6540	10.5490	
8582.29	57.8837	10.2925	
8721.11	58.0935	10.0406	
8862.16	58.2855	9.79365	
9005.50	58.4615	9.55146	
9151.16	58.6230	9.31408	
9299.17	58.7712	9.08115	
9449.58	58.9072	8.85304	
9602.42	59.0320	8.62965	
9757.73	59.1464	8.41092	
9915.55	59.2514	8.19703	
10075.9	59.3478	7.98739	
10238.9	59.4357	7.78227	
10404.5	59.5160	7.58162	
10572.8	59.5891	7.38539	
10743.8	59.6556	7.19353	
10917.6	59.7160	7.00599	
11094.2	59.7705	6.82271	
11273.6	59.8196	6.64362	
11455.9	59.8637	6.46868	
11641.2	59.9030	6.29781	
11829.5	59.9378	6.13096	
12020.8	59.9685	5.96805	
12215.3	59.9954	5.80903	
12412.8	60.0185	5.65384	
12613.6	60.0382	5.50239	
12817.6	60.0548	5.35463	
13025.0	60.0683	5.21049	
13235.6	60.0790	5.06991	
13449.7	60.0870	4.93281	
13667.2	60.0926	4.79912	
13888.3	60.0958	4.66879	
14112.9	60.0969	4.54173	
14341.2	60.0959	4.41790	
14573.1	60.0931	4.29722	
14808.9	60.0884	4.17962	
15048.4	60.0821	4.06505	
15291.8	60.0742	3.95343	
15539.1	60.0648	3.84470	
15790.4	60.0541	3.73880	
16045.8	60.0421	3.63566	
16305.4	60.0290	3.53523	
16569.1	60.0147	3.43744	
16837.1	59.9993	3.34224	
17109.4	59.9830	3.24956	
17386.1	59.9658	3.15934	
17667.4	59.9478	3.07153	
17953.1	59.9289	2.98607	
18243.5	59.9094	2.90290	
18538.6	59.8891	2.82197	
18838.4	59.8682	2.74323	
19143.1	59.8468	2.66662	
19452.7	59.8247	2.59209	
19767.4	59.8022	2.51959	
20087.1	59.7791	2.44907	
20412.0	59.7556	2.38048	
20742.1	59.7317	2.31377	
21077.6	59.7073	2.24889	
21418.5	59.6826	2.18580	
21765.0	59.6574	2.12446	
22117.0	59.6320	2.06481	
22474.7	59.6061	2.00681	
22838.2	59.5800	1.95043	
23207.6	59.5535	1.89562	
23583.0	59.5267	1.84233	
23964.4	59.4995	1.79053	
24352.0	59.4720	1.74019	
24745.9	59.4442	1.69125	
25146.2	59.4160	1.64369	
25552.9	59.3875	1.59747	
25966.2	59.3585	1.55255	
26386.1	59.3292	1.50889	
26812.9	59.2994	1.46647	
27246.6	59.2691	1.42525	
27687.3	59.2384	1.38520	
28135.1	59.2070	1.34629	
28590.2	59.1751	1.30848	
29052.6	59.1425	1.27175	
29522.5	59.1091	1.23606	
30000.0	59.0749	1.20139	
