E(eV)	f1	f2
10.0000	-9999.	1.37727	
10.1617	-9999.	1.38064	
10.3261	-9999.	1.38401	
10.4931	-9999.	1.38740	
10.6628	-9999.	1.39079	
10.8353	-9999.	1.39419	
11.0106	-9999.	1.39982	
11.1886	-9999.	1.44104	
11.3696	-9999.	1.48347	
11.5535	-9999.	1.52716	
11.7404	-9999.	1.57212	
11.9303	-9999.	1.61841	
12.1232	-9999.	1.66663	
12.3193	-9999.	1.71662	
12.5186	-9999.	1.76810	
12.7210	-9999.	1.82113	
12.9268	-9999.	1.87575	
13.1359	-9999.	1.93142	
13.3483	-9999.	1.98842	
13.5642	-9999.	2.04710	
13.7836	-9999.	2.10752	
14.0066	-9999.	2.16971	
14.2331	-9999.	2.23204	
14.4633	-9999.	2.28582	
14.6973	-9999.	2.34091	
14.9350	-9999.	2.39732	
15.1765	-9999.	2.45509	
15.4220	-9999.	2.51425	
15.6714	-9999.	2.57140	
15.9249	-9999.	2.62103	
16.1825	-9999.	2.67162	
16.4442	-9999.	2.72318	
16.7102	-9999.	2.77574	
16.9805	-9999.	2.82931	
17.2551	-9999.	2.88392	
17.5342	-9999.	2.93007	
17.8178	-9999.	2.97110	
18.1060	-9999.	3.01271	
18.3989	-9999.	3.05491	
18.6964	-9999.	3.09769	
18.9988	-9999.	3.14107	
19.3061	-9999.	3.11470	
19.6184	-9999.	3.09192	
19.9357	-9999.	3.09990	
20.2582	-9999.	3.10790	
20.5858	-9999.	3.11592	
20.9188	-9999.	3.12491	
21.2571	-9999.	3.16974	
21.6009	-9999.	3.21521	
21.9503	-9999.	3.26133	
22.3053	-9999.	3.34677	
22.6661	-9999.	3.44429	
23.0327	-9999.	3.54465	
23.4053	-9999.	3.64793	
23.7838	-9999.	3.75422	
24.1685	-9999.	3.80593	
24.5594	-9999.	3.83313	
24.9566	-9999.	3.86051	
25.3603	-9999.	3.88809	
25.7705	-9999.	3.91587	
26.1873	-9999.	3.90685	
26.6109	-9999.	3.88468	
27.0413	-9999.	3.86263	
27.4786	-9999.	3.84070	
27.9231	-9999.	3.81412	
28.3747	-9999.	3.77863	
28.8337	-9999.	3.74347	
29.3000	4.07489	3.70864	
29.7739	4.11878	3.67413	
30.2555	4.15559	3.63994	
30.7449	4.18799	3.60945	
31.2421	4.21844	3.57991	
31.7475	4.24569	3.55062	
32.2609	4.26954	3.52157	
32.7827	4.28991	3.49275	
33.3130	4.30665	3.46417	
33.8518	4.31936	3.43582	
34.3993	4.32706	3.40771	
34.9557	4.33038	3.38228	
35.5211	4.33103	3.36017	
36.0956	4.32965	3.33819	
36.6794	4.32479	3.31636	
37.2727	4.31550	3.29467	
37.8755	4.30020	3.27312	
38.4882	4.27468	3.25172	
39.1107	4.24425	3.25034	
39.7432	4.21830	3.25005	
40.3861	4.19406	3.24976	
41.0393	4.16743	3.24947	
41.7031	4.13541	3.24918	
42.3776	4.09414	3.24888	
43.0630	4.04770	3.26499	
43.7595	4.00654	3.28972	
44.4673	3.96885	3.31464	
45.1865	3.93122	3.33976	
45.9174	3.89203	3.36506	
46.6600	3.85034	3.39055	
47.4147	3.79831	3.41624	
48.1816	3.73782	3.44854	
48.9609	3.68007	3.50082	
49.7528	3.62828	3.55389	
50.5576	3.57767	3.60778	
51.3753	3.52588	3.66247	
52.2062	3.47153	3.71800	
53.0506	3.41420	3.77753	
53.9087	3.35497	3.83910	
54.7806	3.29249	3.90168	
55.6667	3.22528	3.96528	
56.5670	3.15250	4.02991	
57.4820	3.07820	4.09444	
58.4117	2.98535	4.14027	
59.3564	2.86335	4.18662	
60.3165	2.70077	4.23349	
61.2921	2.45011	4.30894	
62.2834	2.18829	4.47415	
63.2908	1.90363	4.64568	
64.3145	1.52278	4.82379	
65.3547	1.00050	5.35920	
66.4118	0.712900	6.16858	
67.4859	0.694467	7.10021	
68.5775	1.10772	8.17252	
69.6867	1.75751	8.50016	
70.8138	2.26228	8.79611	
71.9591	2.71469	9.08103	
73.1230	3.15797	9.20206	
74.3057	3.49643	9.32471	
75.5076	3.81415	9.44899	
76.7289	4.14091	9.57493	
77.9699	4.46124	9.64899	
79.2310	4.75594	9.70549	
80.5125	5.03118	9.76232	
81.8147	5.30150	9.81950	
83.1380	5.58627	9.87699	
84.4827	5.88145	9.86813	
85.8491	6.12735	9.84309	
87.2377	6.34846	9.81811	
88.6487	6.55119	9.79320	
90.0825	6.73894	9.76835	
91.5395	6.90617	9.74356	
93.0201	7.04896	9.73075	
94.5246	7.19681	9.74377	
96.0535	7.35361	9.75681	
97.6071	7.51027	9.76987	
99.1858	7.66641	9.78295	
100.790	7.82189	9.79605	
102.420	7.97682	9.80915	
104.077	8.13160	9.82228	
105.760	8.28712	9.83543	
107.471	8.44647	9.84860	
109.209	8.60494	9.84981	
110.975	8.75933	9.84820	
112.770	8.90703	9.84660	
114.594	9.05240	9.84499	
116.448	9.19571	9.84339	
118.331	9.33813	9.84179	
120.245	9.48087	9.84019	
122.190	9.62523	9.82776	
124.166	9.75819	9.81204	
126.175	9.88397	9.79634	
128.215	10.0028	9.78065	
130.289	10.1138	9.76501	
132.397	10.2099	9.74938	
134.538	10.2682	9.73377	
136.714	10.3327	9.79365	
138.925	10.4316	9.86007	
141.172	10.5474	9.92692	
143.456	10.6757	9.99425	
145.776	10.8152	10.0620	
148.134	10.9657	10.1303	
150.530	11.1282	10.1990	
152.964	11.3049	10.2681	
155.439	11.4992	10.3378	
157.953	11.7511	10.3978	
160.507	12.0042	10.3668	
163.103	12.2017	10.3359	
165.742	12.3889	10.3051	
168.422	12.5688	10.2744	
171.146	12.7435	10.2438	
173.915	12.9142	10.2133	
176.727	13.0823	10.1829	
179.586	13.2484	10.1525	
182.491	13.4134	10.1223	
185.442	13.5780	10.0921	
188.442	13.7429	10.0621	
191.489	13.9091	10.0321	
194.587	14.0776	10.0022	
197.734	14.2497	9.97242	
200.932	14.4351	9.94271	
204.182	14.6388	9.91308	
207.485	14.8440	9.82709	
210.840	15.0233	9.73137	
214.251	15.1866	9.63658	
217.716	15.3400	9.54272	
221.237	15.4860	9.44977	
224.816	15.6259	9.35773	
228.452	15.7608	9.26659	
232.147	15.8913	9.17632	
235.902	16.0179	9.08694	
239.717	16.1412	8.99844	
243.595	16.2616	8.91079	
247.535	16.3794	8.82399	
251.538	16.4950	8.73804	
255.607	16.6088	8.65294	
259.741	16.7212	8.56865	
263.942	16.8328	8.48520	
268.211	16.9440	8.40255	
272.549	17.0559	8.32070	
276.957	17.1684	8.23966	
281.437	17.2961	8.15940	
285.989	17.4280	8.06947	
290.615	17.5535	7.94306	
295.315	17.6582	7.81865	
300.092	17.7522	7.69617	
304.945	17.8383	7.57562	
309.878	17.9182	7.45695	
314.890	17.9926	7.34015	
319.983	18.0622	7.22517	
325.158	18.1275	7.11199	
330.418	18.1890	7.00059	
335.762	18.2469	6.89094	
341.192	18.3016	6.78300	
346.711	18.3535	6.67675	
352.319	18.4028	6.57216	
358.017	18.4502	6.46922	
363.808	18.4964	6.36788	
369.692	18.5455	6.26813	
375.672	18.5909	6.15792	
381.748	18.6295	6.04599	
387.922	18.6603	5.93609	
394.197	18.6861	5.82819	
400.573	18.7075	5.72225	
407.052	18.7250	5.61823	
413.635	18.7389	5.51611	
420.326	18.7492	5.41584	
427.124	18.7562	5.31740	
434.032	18.7599	5.22074	
441.052	18.7606	5.12584	
448.186	18.7582	5.03267	
455.435	18.7530	4.94119	
462.802	18.7451	4.85137	
470.287	18.7346	4.76319	
477.894	18.7219	4.67661	
485.623	18.7078	4.59160	
493.478	18.6944	4.50813	
501.459	18.6841	4.41984	
509.570	18.6676	4.31530	
517.812	18.6345	4.21322	
526.187	18.5923	4.11356	
534.698	18.5425	4.01626	
543.346	18.4853	3.92125	
552.134	18.4207	3.82850	
561.065	18.3488	3.73793	
570.139	18.2691	3.64952	
579.361	18.1812	3.56319	
588.732	18.0845	3.47890	
598.254	17.9775	3.39661	
607.930	17.8558	3.31626	
617.763	17.7261	3.25118	
627.755	17.5904	3.19090	
637.908	17.4496	3.13174	
648.226	17.2992	3.07368	
658.711	17.1372	3.01669	
669.365	16.9618	2.96076	
680.191	16.7709	2.90587	
691.193	16.5627	2.85199	
702.372	16.3354	2.79911	
713.733	16.0924	2.74722	
725.277	15.8265	2.66726	
737.008	15.4916	2.54699	
748.928	15.0476	2.43214	
761.042	14.5541	2.40333	
773.351	13.9833	2.35520	
785.859	13.2954	2.31346	
798.570	12.4407	2.27693	
811.486	11.3146	2.24149	
824.611	9.68933	2.20661	
837.949	6.86521	2.17229	
851.502	-4.77850	2.13850	
852.600	-16.5847	2.13581	
852.800	-16.5694	17.1612	
865.274	6.89208	16.8200	
879.269	10.6978	16.4508	
893.491	12.9007	16.0897	
907.943	14.4482	15.7365	
922.628	15.6208	15.3911	
937.551	16.5503	15.0686	
952.715	17.2837	14.7422	
968.124	17.7758	14.4139	
983.783	18.0717	14.2733	
999.695	18.1198	14.5442	
1015.86	19.1887	15.2836	
1032.29	20.4147	14.9622	
1048.99	21.0748	14.6335	
1065.96	21.6619	14.3064	
1083.20	22.1779	13.9864	
1100.72	22.6378	13.6735	
1118.52	23.0529	13.3675	
1136.61	23.4306	13.0684	
1155.	23.7764	12.7760	
1173.68	24.0946	12.4902	
1192.66	24.3887	12.2108	
1211.95	24.6617	11.9376	
1231.55	24.9164	11.6705	
1251.47	25.1548	11.4073	
1271.72	25.3771	11.1477	
1292.29	25.5830	10.8913	
1313.19	25.7736	10.6408	
1334.43	25.9511	10.3960	
1356.01	26.1167	10.1568	
1377.94	26.2716	9.92318	
1400.23	26.4168	9.69489	
1422.88	26.5534	9.47183	
1445.89	26.6824	9.25396	
1469.28	26.8062	9.03977	
1493.04	26.9235	8.82853	
1517.19	27.0337	8.61410	
1541.73	27.1321	8.40382	
1566.67	27.2219	8.19876	
1592.01	27.3047	7.99863	
1617.76	27.3809	7.80334	
1643.92	27.4513	7.61278	
1670.51	27.5164	7.42691	
1697.53	27.5768	7.24564	
1724.99	27.6340	7.06889	
1752.89	27.6875	6.89317	
1781.24	27.7356	6.72078	
1810.05	27.7780	6.55195	
1839.32	27.8161	6.38739	
1869.07	27.8503	6.22694	
1899.30	27.8808	6.07048	
1930.02	27.9082	5.91807	
1961.24	27.9323	5.76947	
1992.96	27.9538	5.62449	
2025.20	27.9735	5.48525	
2057.95	27.9917	5.34614	
2091.24	28.0074	5.21021	
2125.06	28.0198	5.07749	
2159.43	28.0301	4.94801	
2194.36	28.0381	4.82139	
2229.85	28.0443	4.69811	
2265.92	28.0487	4.57759	
2302.57	28.0512	4.45991	
2339.81	28.0520	4.34528	
2377.66	28.0512	4.23335	
2416.11	28.0492	4.12431	
2455.19	28.0457	4.01774	
2494.90	28.0409	3.91381	
2535.26	28.0351	3.81264	
2576.26	28.0280	3.71371	
2617.93	28.0198	3.61737	
2660.27	28.0107	3.52337	
2703.30	28.0006	3.43174	
2747.03	27.9897	3.34237	
2791.46	27.9780	3.25525	
2836.61	27.9654	3.17028	
2882.49	27.9522	3.08748	
2929.11	27.9383	3.00673	
2976.48	27.9237	2.92803	
3024.63	27.9086	2.85132	
3073.55	27.8929	2.77654	
3123.26	27.8767	2.70362	
3173.78	27.8600	2.63256	
3225.11	27.8428	2.56329	
3277.27	27.8251	2.49582	
3330.28	27.8071	2.43004	
3384.15	27.7887	2.36592	
3438.88	27.7699	2.30341	
3494.50	27.7507	2.24255	
3551.02	27.7313	2.18319	
3608.46	27.7115	2.12538	
3666.82	27.6914	2.06903	
3726.13	27.6710	2.01410	
3786.40	27.6503	1.96060	
3847.64	27.6293	1.90848	
3909.87	27.6081	1.85767	
3973.11	27.5866	1.80819	
4037.38	27.5648	1.75993	
4102.68	27.5427	1.71294	
4169.03	27.5203	1.66712	
4236.46	27.4977	1.62253	
4304.98	27.4748	1.57905	
4374.62	27.4516	1.53665	
4445.37	27.4281	1.49540	
4517.27	27.4043	1.45514	
4590.33	27.3801	1.41597	
4664.58	27.3555	1.37776	
4740.03	27.3305	1.34054	
4816.69	27.3052	1.30428	
4894.60	27.2794	1.26897	
4973.77	27.2531	1.23452	
5054.21	27.2262	1.20094	
5135.96	27.1988	1.16828	
5219.03	27.1708	1.13642	
5303.44	27.1421	1.10536	
5389.22	27.1127	1.07511	
5476.39	27.0824	1.04560	
5564.97	27.0512	1.01693	
5654.98	27.0190	0.988877	
5746.44	26.9857	0.961612	
5839.39	26.9511	0.935044	
5933.83	26.9152	0.909130	
6029.81	26.8777	0.883844	
6127.33	26.8384	0.859254	
6226.44	26.7972	0.835240	
6327.15	26.7536	0.811858	
6429.48	26.7075	0.789069	
6533.48	26.6584	0.766841	
6639.15	26.6058	0.745185	
6746.54	26.5492	0.724075	
6855.65	26.4878	0.703492	
6966.54	26.4206	0.683436	
7079.22	26.3466	0.663872	
7193.72	26.2639	0.644803	
7310.07	26.1706	0.626209	
7428.31	26.0635	0.608093	
7548.45	25.9382	0.590415	
7670.54	25.7876	0.573185	
7794.61	25.6001	0.556386	
7920.68	25.3543	0.540007	
8048.79	25.0030	0.524024	
8178.98	24.4098	0.508444	
8311.26	22.3857	0.493285	
8332.70	16.7028	0.490893	
8332.90	16.7033	3.83905	
8445.69	24.2527	3.76427	
8582.29	25.1541	3.67693	
8721.11	25.6675	3.59086	
8862.16	26.0303	3.50611	
9005.50	26.3112	3.42271	
9151.16	26.5399	3.34062	
9299.17	26.7321	3.25979	
9449.58	26.8971	3.18038	
9602.42	27.0410	3.10241	
9757.73	27.1679	3.02575	
9915.55	27.2808	2.95068	
10075.9	27.3820	2.87686	
10238.9	27.4733	2.80444	
10404.5	27.5558	2.73343	
10572.8	27.6307	2.66382	
10743.8	27.6989	2.59560	
10917.6	27.7611	2.52878	
11094.2	27.8180	2.46334	
11273.6	27.8700	2.39927	
11455.9	27.9176	2.33657	
11641.2	27.9613	2.27521	
11829.5	28.0013	2.21519	
12020.8	28.0380	2.15650	
12215.3	28.0716	2.09912	
12412.8	28.1024	2.04303	
12613.6	28.1306	1.98822	
12817.6	28.1564	1.93467	
13025.0	28.1800	1.88237	
13235.6	28.2014	1.83129	
13449.7	28.2210	1.78141	
13667.2	28.2388	1.73273	
13888.3	28.2549	1.68521	
14112.9	28.2694	1.63884	
14341.2	28.2826	1.59361	
14573.1	28.2943	1.54948	
14808.9	28.3048	1.50644	
15048.4	28.3141	1.46447	
15291.8	28.3224	1.42356	
15539.1	28.3296	1.38367	
15790.4	28.3358	1.34480	
16045.8	28.3412	1.30691	
16305.4	28.3457	1.26999	
16569.1	28.3494	1.23403	
16837.1	28.3524	1.19899	
17109.4	28.3547	1.16487	
17386.1	28.3564	1.13164	
17667.4	28.3575	1.09928	
17953.1	28.3581	1.06777	
18243.5	28.3581	1.03710	
18538.6	28.3577	1.00725	
18838.4	28.3568	0.978188	
19143.1	28.3555	0.949909	
19452.7	28.3539	0.922391	
19767.4	28.3518	0.895616	
20087.1	28.3495	0.869567	
20412.0	28.3468	0.844228	
20742.1	28.3439	0.819580	
21077.6	28.3407	0.795607	
21418.5	28.3373	0.772295	
21765.0	28.3336	0.749624	
22117.0	28.3298	0.727581	
22474.7	28.3257	0.706150	
22838.2	28.3216	0.685315	
23207.6	28.3172	0.665061	
23583.0	28.3127	0.645374	
23964.4	28.3081	0.626241	
24352.0	28.3034	0.607644	
24745.9	28.2986	0.589574	
25146.2	28.2937	0.572013	
25552.9	28.2888	0.554951	
25966.2	28.2838	0.538374	
26386.1	28.2787	0.522269	
26812.9	28.2736	0.506624	
27246.6	28.2684	0.491427	
27687.3	28.2632	0.476665	
28135.1	28.2581	0.462328	
28590.2	28.2529	0.448404	
29052.6	28.2480	0.434882	
29522.5	28.2436	0.421750	
30000.0	28.2337	0.408999	
