E(eV)	f1	f2
10.0000	-9999.	0.416155E-01
10.1617	-9999.	0.447891E-01
10.3261	-9999.	0.482047E-01
10.4931	-9999.	0.518808E-01
10.6628	-9999.	0.558373E-01
10.8353	-9999.	0.600954E-01
11.0106	-9999.	0.646784E-01
11.1886	-9999.	0.696108E-01
11.3696	-9999.	0.749193E-01
11.5535	-9999.	0.810239E-01
11.7404	-9999.	0.895658E-01
11.9303	-9999.	0.983588E-01
12.1232	-9999.	0.106042	
12.3193	-9999.	0.114325	
12.5186	-9999.	0.123256	
12.7210	-9999.	0.134144	
12.9268	-9999.	0.146005	
13.1359	-9999.	0.159223	
13.3483	-9999.	0.177830	
13.5642	-9999.	0.198612	
13.7836	-9999.	0.218147	
14.0066	-9999.	0.238232	
14.2331	-9999.	0.261404	
14.4633	-9999.	0.310039	
14.6973	-9999.	0.346301	
14.9350	-9999.	0.394322	
15.1765	-9999.	0.450738	
15.4220	-9999.	0.507685	
15.6714	-9999.	0.601651	
15.9249	-9999.	0.774102	
16.1825	-9999.	1.02488	
16.4442	-9999.	1.51883	
16.7102	-9999.	2.21984	
16.9805	-9999.	3.07294	
17.2551	-9999.	3.83627	
17.5342	-9999.	4.65683	
17.8178	-9999.	5.53903	
18.1060	-9999.	6.33654	
18.3989	-9999.	7.24889	
18.6964	-9999.	7.79441	
18.9988	-9999.	8.37895	
19.3061	-9999.	9.00733	
19.6184	-9999.	9.34882	
19.9357	-9999.	9.66155	
20.2582	-9999.	9.94611	
20.5858	-9999.	10.2140	
20.9188	-9999.	10.4890	
21.2571	-9999.	10.6666	
21.6009	-9999.	10.7906	
21.9503	-9999.	10.9161	
22.3053	-9999.	10.9629	
22.6661	-9999.	10.9902	
23.0327	-9999.	11.0176	
23.4053	-9999.	11.0451	
23.7838	-9999.	11.0788	
24.1685	-9999.	11.1201	
24.5594	-9999.	11.1615	
24.9566	-9999.	11.2030	
25.3603	-9999.	11.2447	
25.7705	-9999.	11.2654	
26.1873	-9999.	11.1628	
26.6109	-9999.	11.0612	
27.0413	-9999.	10.9606	
27.4786	-9999.	10.8608	
27.9231	-9999.	10.6947	
28.3747	-9999.	10.3380	
28.8337	-9999.	9.99321	
29.3000	10.0231	9.65993	
29.7739	10.3869	9.31387	
30.2555	10.6731	8.80151	
30.7449	10.8378	8.31736	
31.2421	10.9276	7.85982	
31.7475	10.9564	7.42746	
32.2609	10.9156	7.03794	
32.7827	10.8750	6.72826	
33.3130	10.8401	6.43221	
33.8518	10.7975	6.14918	
34.3993	10.7449	5.87861	
34.9557	10.6821	5.61994	
35.5211	10.6094	5.37266	
36.0956	10.5275	5.13626	
36.6794	10.4378	4.91025	
37.2727	10.3440	4.69356	
37.8755	10.2388	4.47125	
38.4882	10.1175	4.25945	
39.1107	9.98372	4.05770	
39.7432	9.83946	3.86549	
40.3861	9.68548	3.68239	
41.0393	9.52230	3.50797	
41.7031	9.35041	3.34181	
42.3776	9.17094	3.18351	
43.0630	8.98657	3.03210	
43.7595	8.79012	2.87624	
44.4673	8.57817	2.72839	
45.1865	8.35357	2.58814	
45.9174	8.11693	2.45510	
46.6600	7.86833	2.32890	
47.4147	7.60777	2.20918	
48.1816	7.33637	2.09562	
48.9609	7.05586	1.98010	
49.7528	6.75056	1.86495	
50.5576	6.42306	1.75650	
51.3753	6.07239	1.65436	
52.2062	5.69115	1.55978	
53.0506	5.29561	1.49693	
53.9087	4.89295	1.43661	
54.7806	4.48402	1.36656	
55.6667	4.01550	1.26162	
56.5670	3.47459	1.20005	
57.4820	2.92314	1.16970	
58.4117	2.33601	1.14011	
59.3564	1.70094	1.12369	
60.3165	1.00897	1.12144	
61.2921	0.254754	1.12785	
62.2834	-0.582389	1.17308	
63.2908	-1.49577	1.23717	
64.3145	-2.51051	1.34964	
65.3547	-3.65452	1.52064	
66.4118	-4.93668	1.75547	
67.4859	-6.34632	2.14859	
68.5775	-7.89092	2.62972	
69.6867	-9.63515	3.21861	
70.8138	-11.7133	3.93935	
71.9591	-14.5297	4.85418	
73.1230	-17.7766	7.24885	
74.3057	-20.9928	10.8250	
75.5076	-23.6066	16.1657	
76.7289	-23.4843	24.1976	
77.9699	-20.0133	28.9189	
79.2310	-16.5771	32.5597	
80.5125	-13.5652	34.3912	
81.8147	-11.1454	36.3257	
83.1380	-8.67461	38.3690	
84.4827	-5.52921	40.0268	
85.8491	-2.79682	41.0978	
87.2377	-0.162060	42.1976	
88.6487	2.91758	42.9495	
90.0825	5.57233	43.1639	
91.5395	8.06484	43.3795	
93.0201	10.6009	43.5961	
94.5246	13.5527	43.5507	
96.0535	16.0787	42.7158	
97.6071	18.2453	41.8968	
99.1858	20.2158	41.0936	
100.790	22.1117	40.3057	
102.420	24.1283	39.5330	
104.077	26.1022	38.1953	
105.760	27.6229	36.7367	
107.471	28.8848	35.3337	
109.209	29.9720	33.9843	
110.975	30.9262	32.6865	
112.770	31.7765	31.4381	
114.594	32.5480	30.2375	
116.448	33.2715	29.0828	
118.331	34.0274	27.9721	
120.245	34.6812	26.6142	
122.190	35.1513	25.3119	
124.166	35.4919	24.0733	
126.175	35.7489	22.8954	
128.215	35.9395	21.7750	
130.289	36.0776	20.7095	
132.397	36.1776	19.6962	
134.538	36.2690	18.7324	
136.714	36.3179	17.7215	
138.925	36.2870	16.7527	
141.172	36.1973	15.8370	
143.456	36.0688	14.9713	
145.776	35.9094	14.1530	
148.134	35.7246	13.3793	
150.530	35.5195	12.6480	
152.964	35.2980	11.9566	
155.439	35.0644	11.3030	
157.953	34.8235	10.6852	
160.507	34.5833	10.1011	
163.103	34.3723	9.54898	
165.742	34.1356	8.91629	
168.422	33.8375	8.31716	
171.146	33.4970	7.75831	
173.915	33.1315	7.23700	
176.727	32.7449	6.75072	
179.586	32.3366	6.29711	
182.491	31.8869	5.87399	
185.442	31.4117	5.55237	
188.442	30.9927	5.29072	
191.489	30.6014	5.04142	
194.587	30.2239	4.80385	
197.734	29.8543	4.57749	
200.932	29.4892	4.36178	
204.182	29.1262	4.15625	
207.485	28.7663	3.95829	
210.840	28.3997	3.76496	
214.251	28.0244	3.58108	
217.716	27.6387	3.40618	
221.237	27.2334	3.23983	
224.816	26.7960	3.10925	
228.452	26.3817	3.02074	
232.147	25.9740	2.93474	
235.902	25.5567	2.85120	
239.717	25.0991	2.77943	
243.595	24.6586	2.78581	
247.535	24.2377	2.79221	
251.538	23.8098	2.80553	
255.607	23.3916	2.83898	
259.741	22.9769	2.87283	
263.942	22.5456	2.90890	
268.211	22.1124	2.97595	
272.549	21.6778	3.04455	
276.957	21.2322	3.11473	
281.437	20.7612	3.18653	
285.989	20.2453	3.29183	
290.615	19.7284	3.43372	
295.315	19.1783	3.58172	
300.092	18.6095	3.80575	
304.945	18.0515	4.06095	
309.878	17.4869	4.33803	
314.890	16.9013	4.63597	
319.983	16.2499	4.96135	
325.158	15.6030	5.43912	
330.418	14.9969	5.96290	
335.762	14.4018	6.49923	
341.192	13.7838	7.08147	
346.711	13.1411	7.77906	
352.319	12.5476	8.58257	
358.017	12.0247	9.46906	
363.808	11.6020	10.3980	
369.692	11.1848	11.3303	
375.672	10.7944	12.3461	
381.748	10.4584	13.4531	
387.922	10.2266	14.6593	
394.197	10.1049	15.8895	
400.573	10.1194	17.1995	
407.052	10.2404	18.4517	
413.635	10.4488	19.7691	
420.326	11.0632	21.0697	
427.124	11.6124	22.0221	
434.032	12.0595	23.0176	
441.052	12.5900	24.0580	
448.186	13.2449	24.9877	
455.435	13.8724	25.8376	
462.802	14.4901	26.7163	
470.287	15.1720	27.6250	
477.894	16.2130	28.4596	
485.623	17.1215	28.9117	
493.478	17.8451	29.3711	
501.459	18.5299	29.8377	
509.570	19.1979	30.3115	
517.812	19.8600	30.7870	
526.187	20.5593	31.2700	
534.698	21.2792	31.6738	
543.346	21.9355	32.0236	
552.134	22.5468	32.3773	
561.065	23.0884	32.7349	
570.139	23.5985	33.1946	
579.361	24.1779	33.7250	
588.732	24.8134	34.2638	
598.254	25.5185	34.8112	
607.930	26.2651	35.3151	
617.763	27.0307	35.8136	
627.755	27.8331	36.3192	
637.908	28.7748	36.7994	
648.226	29.6993	37.1517	
658.711	30.5880	37.5074	
669.365	31.4948	37.8700	
680.191	32.4583	38.2553	
691.193	33.4979	38.6446	
702.372	34.8668	39.0378	
713.733	36.2559	38.9004	
725.277	37.3795	38.6317	
737.008	38.3693	38.3637	
748.928	39.2816	38.0976	
761.042	40.1441	37.8324	
773.351	40.9783	37.5578	
785.859	41.7807	37.2463	
798.570	42.5152	36.9052	
811.486	43.1949	36.5670	
824.611	43.8316	36.2320	
837.949	44.4339	35.9004	
851.502	45.0013	35.5572	
865.274	45.5254	35.2014	
879.269	45.9834	34.8349	
893.491	46.3682	34.4723	
907.943	46.6538	34.1136	
922.628	46.6919	33.7588	
937.551	46.7277	33.9054	
952.715	46.9005	34.1821	
968.124	47.3131	34.5759	
983.783	47.9325	34.9740	
999.695	48.7780	35.3026	
1015.86	49.9482	35.5540	
1032.29	50.9565	35.0996	
1048.99	51.7078	34.7124	
1065.96	52.3732	34.4027	
1083.20	53.0112	34.0952	
1100.72	53.6216	33.7902	
1118.52	54.2104	33.4874	
1136.61	54.7824	33.1867	
1155.	55.3425	32.8883	
1173.68	55.8951	32.5921	
1192.66	56.4454	32.2981	
1211.95	57.0020	32.0062	
1231.55	57.5883	31.7162	
1251.47	58.2024	31.3633	
1271.72	58.8217	30.9430	
1292.29	59.3575	30.4415	
1313.19	59.8269	29.9474	
1334.43	60.2549	29.4610	
1356.01	60.6504	28.9817	
1377.94	61.0183	28.5094	
1400.23	61.3626	28.0444	
1422.88	61.6859	27.5864	
1445.89	61.9903	27.1348	
1469.28	62.2784	26.6891	
1493.04	62.5522	26.2487	
1517.19	62.8080	25.8066	
1541.73	63.0449	25.3706	
1566.67	63.2650	24.9417	
1592.01	63.4701	24.5191	
1617.76	63.6613	24.1032	
1643.92	63.8395	23.6936	
1670.51	64.0053	23.2902	
1697.53	64.1594	22.8933	
1724.99	64.3104	22.5029	
1752.89	64.4491	22.1040	
1781.24	64.5696	21.7068	
1810.05	64.6727	21.3127	
1839.32	64.7585	20.9250	
1869.07	64.8298	20.5440	
1899.30	64.8870	20.1696	
1930.02	64.9307	19.8017	
1961.24	64.9614	19.4400	
1992.96	64.9752	19.0837	
2025.20	64.9885	18.7442	
2057.95	64.9902	18.3904	
2091.24	64.9704	18.0409	
2125.06	64.9330	17.6952	
2159.43	64.8778	17.3543	
2194.36	64.8048	17.0176	
2229.85	64.7122	16.6848	
2265.92	64.5989	16.3565	
2302.57	64.4642	16.0332	
2339.81	64.3066	15.7140	
2377.66	64.1236	15.3986	
2416.11	63.9123	15.0873	
2455.19	63.6705	14.7807	
2494.90	63.3941	14.4777	
2535.26	63.0783	14.1794	
2576.26	62.7184	13.8857	
2617.93	62.3070	13.5960	
2660.27	61.8350	13.3107	
2703.30	61.2902	13.0294	
2747.03	60.6561	12.7523	
2791.46	59.9093	12.4794	
2836.61	59.0157	12.2108	
2882.49	57.9218	11.9461	
2929.11	56.5362	11.6854	
2976.48	54.6827	11.4288	
3024.63	51.9383	11.1763	
3073.55	46.6276	10.9277	
3104.80	16.1960	10.7738	
3105.	16.1974	27.2762	
3123.26	43.3843	27.0160	
3173.78	49.0242	26.3167	
3225.11	48.2405	25.6368	
3248.30	29.9784	25.3389	
3248.50	29.9890	36.5230	
3277.27	51.3536	36.0381	
3330.28	56.7290	35.1722	
3384.15	59.7922	34.3284	
3438.88	61.9810	33.5050	
3494.50	63.6549	32.7040	
3551.02	64.9580	31.9228	
3608.46	65.9457	31.1615	
3666.82	66.6031	30.4195	
3726.13	66.7500	29.6946	
3786.40	64.0895	28.9895	
3791.70	58.3484	28.9288	
3791.90	58.3579	33.5490	
3847.64	68.4614	32.8159	
3909.87	70.3455	32.0283	
3973.11	71.6560	31.2592	
4037.38	72.6958	30.5114	
4102.68	73.5590	29.7810	
4169.03	74.2847	29.0689	
4236.46	74.8927	28.3754	
4304.98	75.3823	27.6967	
4374.62	75.7272	27.0372	
4445.37	76.0083	26.3919	
4489.40	73.4397	26.0032	
4489.60	73.4472	27.5684	
4517.27	76.0202	27.3223	
4590.33	77.0475	26.6901	
4664.58	77.6398	26.0751	
4740.03	78.0128	25.4745	
4816.69	77.5927	24.8874	
4821.90	76.2492	24.8483	
4822.10	76.2506	25.9373	
4894.60	78.9790	25.3852	
4973.77	79.6603	24.8047	
5054.21	80.1946	24.2344	
5135.96	80.6516	23.6752	
5219.03	81.0556	23.1268	
5303.44	81.4183	22.5894	
5389.22	81.7465	22.0623	
5476.39	82.0451	21.5460	
5564.97	82.3178	21.0404	
5654.98	82.5674	20.5453	
5746.44	82.7959	20.0601	
5839.39	83.0051	19.5851	
5933.83	83.1966	19.1202	
6029.81	83.3720	18.6652	
6127.33	83.5320	18.2198	
6226.44	83.6781	17.7842	
6327.15	83.8110	17.3580	
6429.48	83.9317	16.9412	
6533.48	84.0409	16.5334	
6639.15	84.1393	16.1346	
6746.54	84.2275	15.7449	
6855.65	84.3063	15.3639	
6966.54	84.3759	14.9913	
7079.22	84.4371	14.6275	
7193.72	84.4904	14.2716	
7310.07	84.5359	13.9240	
7428.31	84.5744	13.5847	
7548.45	84.6064	13.2529	
7670.54	84.6318	12.9289	
7794.61	84.6511	12.6123	
7920.68	84.6645	12.3031	
8048.79	84.6723	12.0015	
8178.98	84.6754	11.7068	
8311.26	84.6732	11.4188	
8445.69	84.6663	11.1382	
8582.29	84.6552	10.8637	
8721.11	84.6394	10.5959	
8862.16	84.6195	10.3347	
9005.50	84.5961	10.0798	
9151.16	84.5691	9.83055	
9299.17	84.5384	9.58769	
9449.58	84.5047	9.35053	
9602.42	84.4684	9.11929	
9757.73	84.4301	8.89365	
9915.55	84.3979	8.67329	
10075.9	84.3631	8.43869	
10238.9	84.3081	8.21020	
10404.5	84.2470	7.98771	
10572.8	84.1792	7.77110	
10743.8	84.1049	7.56029	
10917.6	84.0244	7.35517	
11094.2	83.9377	7.15562	
11273.6	83.8448	6.96154	
11455.9	83.7455	6.77283	
11641.2	83.6395	6.58937	
11829.5	83.5264	6.41106	
12020.8	83.4056	6.23779	
12215.3	83.2766	6.06945	
12412.8	83.1383	5.90594	
12613.6	82.9896	5.74715	
12817.6	82.8292	5.59299	
13025.0	82.6549	5.44332	
13235.6	82.4644	5.29808	
13449.7	82.2542	5.15714	
13667.2	82.0196	5.02040	
13888.3	81.7537	4.88777	
14112.9	81.4464	4.75915	
14341.2	81.0811	4.63445	
14573.1	80.6292	4.51355	
14808.9	80.0330	4.39638	
15048.4	79.1480	4.28284	
15291.8	77.3730	4.17283	
15444.3	63.4445	4.10618	
15444.5	63.4453	10.1333	
15539.1	76.5895	10.0254	
15790.4	79.1100	9.74735	
16045.8	80.1454	9.47701	
16305.4	80.7672	9.21417	
16569.1	81.1762	8.95863	
16837.1	81.4442	8.71017	
17109.4	81.6003	8.46861	
17386.1	81.6513	8.23376	
17667.4	81.5826	8.00542	
17953.1	81.3385	7.78342	
18243.5	80.7011	7.56758	
18484.2	73.2421	7.39570	
18484.4	73.2422	10.4324	
18538.6	79.3439	10.3877	
18838.4	81.1169	10.1461	
19143.1	81.2455	9.91006	
19236.6	78.2514	9.83947	
19236.8	78.2519	11.3016	
19452.7	82.2057	11.1140	
19767.4	83.0544	10.8497	
20087.1	83.6255	10.5903	
20412.0	84.0732	10.3358	
20742.1	84.4447	10.0862	
21077.6	84.7626	9.84149	
21418.5	85.0396	9.60163	
21765.0	85.2840	9.36658	
22117.0	85.5015	9.13633	
22474.7	85.6963	8.91083	
22838.2	85.8716	8.69003	
23207.6	86.0299	8.47390	
23583.0	86.1732	8.26238	
23964.4	86.3031	8.05543	
24352.0	86.4211	7.85298	
24745.9	86.5283	7.65499	
25146.2	86.6256	7.46139	
25552.9	86.7141	7.27213	
25966.2	86.7943	7.08714	
26386.1	86.8671	6.90635	
26812.9	86.9329	6.72972	
27246.6	86.9925	6.55715	
27687.3	87.0461	6.38860	
28135.1	87.0943	6.22398	
28590.2	87.1375	6.06325	
29052.6	87.1760	5.90632	
29522.5	87.2101	5.75313	
30000.0	87.2402	5.60361	
