E(eV)	f1	f2
10.0000	-9999.	1.17537	
10.1617	-9999.	1.24044	
10.3261	-9999.	1.30912	
10.4931	-9999.	1.38160	
10.6628	-9999.	1.45810	
10.8353	-9999.	1.53883	
11.0106	-9999.	1.62403	
11.1886	-9999.	1.71394	
11.3696	-9999.	1.80884	
11.5535	-9999.	1.90899	
11.7404	-9999.	2.00042	
11.9303	-9999.	2.09375	
12.1232	-9999.	2.19144	
12.3193	-9999.	2.29369	
12.5186	-9999.	2.40070	
12.7210	-9999.	2.51271	
12.9268	-9999.	2.62995	
13.1359	-9999.	2.75265	
13.3483	-9999.	2.88108	
13.5642	-9999.	3.01551	
13.7836	-9999.	3.15235	
14.0066	-9999.	3.28289	
14.2331	-9999.	3.41884	
14.4633	-9999.	3.56042	
14.6973	-9999.	3.70786	
14.9350	-9999.	3.86141	
15.1765	-9999.	4.02132	
15.4220	-9999.	4.18785	
15.6714	-9999.	4.36127	
15.9249	-9999.	4.52458	
16.1825	-9999.	4.66392	
16.4442	-9999.	4.80756	
16.7102	-9999.	4.95562	
16.9805	-9999.	5.10824	
17.2551	-9999.	5.26556	
17.5342	-9999.	5.42772	
17.8178	-9999.	5.59488	
18.1060	-9999.	5.76719	
18.3989	-9999.	5.94481	
18.6964	-9999.	6.12789	
18.9988	-9999.	6.31661	
19.3061	-9999.	6.49918	
19.6184	-9999.	6.66358	
19.9357	-9999.	6.83213	
20.2582	-9999.	7.00494	
20.5858	-9999.	7.18213	
20.9188	-9999.	7.36379	
21.2571	-9999.	7.55005	
21.6009	-9999.	7.74103	
21.9503	-9999.	7.93683	
22.3053	-9999.	8.09281	
22.6661	-9999.	8.23857	
23.0327	-9999.	8.38711	
23.4053	-9999.	8.53836	
23.7838	-9999.	8.69235	
24.1685	-9999.	8.84910	
24.5594	-9999.	9.00869	
24.9566	-9999.	9.17115	
25.3603	-9999.	9.28547	
25.7705	-9999.	9.35804	
26.1873	-9999.	9.43118	
26.6109	-9999.	9.50487	
27.0413	-9999.	9.52837	
27.4786	-9999.	9.51188	
27.9231	-9999.	9.49541	
28.3747	-9999.	9.47898	
28.8337	-9999.	9.46258	
29.3000	4.70534	9.41310	
29.7739	4.90676	9.35740	
30.2555	5.09755	9.30204	
30.7449	5.28621	9.24700	
31.2421	5.48290	9.19228	
31.7475	5.71977	9.13789	
32.2609	5.94722	8.93847	
32.7827	6.09107	8.73686	
33.3130	6.18463	8.53981	
33.8518	6.24108	8.34719	
34.3993	6.25941	8.15893	
34.9557	6.22758	7.99834	
35.5211	6.19669	7.86634	
36.0956	6.15184	7.73651	
36.6794	6.08461	7.60883	
37.2727	5.98379	7.48325	
37.8755	5.84548	7.38742	
38.4882	5.68807	7.30257	
39.1107	5.47854	7.21869	
39.7432	5.20762	7.23081	
40.3861	4.96732	7.28432	
41.0393	4.68621	7.33823	
41.7031	4.33155	7.51913	
42.3776	4.04527	7.77047	
43.0630	3.73775	8.03370	
43.7595	3.46975	8.49636	
44.4673	3.30893	8.98568	
45.1865	3.23882	9.50317	
45.9174	3.22355	9.96912	
46.6600	3.22567	10.4563	
47.4147	3.25853	10.9673	
48.1816	3.33232	11.5033	
48.9609	3.45444	12.0655	
49.7528	3.64368	12.6551	
50.5576	3.93160	13.2250	
51.3753	4.23391	13.7757	
52.2062	4.58169	14.3492	
53.0506	5.02262	14.9467	
53.9087	5.65139	15.5181	
54.7806	6.26532	15.8599	
55.6667	6.83131	16.2092	
56.5670	7.41151	16.5663	
57.4820	8.03415	16.9311	
58.4117	8.75145	17.3041	
59.3564	9.59027	17.5205	
60.3165	10.3563	17.6548	
61.2921	11.1122	17.7902	
62.2834	11.9314	17.9266	
63.2908	12.9363	18.0641	
64.3145	13.9383	17.7449	
65.3547	14.7331	17.3938	
66.4118	15.4356	17.0496	
67.4859	16.0881	16.7123	
68.5775	16.7147	16.3816	
69.6867	17.3417	16.0575	
70.8138	18.0070	15.6833	
71.9591	18.6141	15.2606	
73.1230	19.2168	14.8493	
74.3057	19.8821	14.4490	
75.5076	20.8097	13.8376	
76.7289	21.3726	12.8289	
77.9699	21.6948	11.8937	
79.2310	21.8777	11.0267	
80.5125	21.9707	10.2228	
81.8147	21.9994	9.47763	
83.1380	21.9867	8.78672	
84.4827	21.9557	8.11257	
85.8491	21.8537	7.46249	
87.2377	21.7029	6.86448	
88.6487	21.5223	6.31442	
90.0825	21.3191	5.80840	
91.5395	21.0980	5.34296	
93.0201	20.8618	4.91481	
94.5246	20.6069	4.52097	
96.0535	20.3512	4.18740	
97.6071	20.1050	3.87926	
99.1858	19.8643	3.59380	
100.790	19.6264	3.32935	
102.420	19.3919	3.08435	
104.077	19.1643	2.85738	
105.760	18.9469	2.62759	
107.471	18.7094	2.40272	
109.209	18.4583	2.19710	
110.975	18.1987	2.00908	
112.770	17.9230	1.83715	
114.594	17.6442	1.71000	
116.448	17.3783	1.59796	
118.331	17.1048	1.49325	
120.245	16.8137	1.43689	
122.190	16.5569	1.41034	
124.166	16.3114	1.38428	
126.175	16.0806	1.39160	
128.215	15.8707	1.39953	
130.289	15.6696	1.40751	
132.397	15.4605	1.42143	
134.538	15.2679	1.46169	
136.714	15.0927	1.50309	
138.925	14.9268	1.54566	
141.172	14.7674	1.58944	
143.456	14.6112	1.63446	
145.776	14.4476	1.68696	
148.134	14.2973	1.75697	
150.530	14.1595	1.82989	
152.964	14.0298	1.90583	
155.439	13.9078	1.98492	
157.953	13.7945	2.06556	
160.507	13.6854	2.14647	
163.103	13.5814	2.23055	
165.742	13.4830	2.31793	
168.422	13.3912	2.40873	
171.146	13.3072	2.50309	
173.915	13.2340	2.60114	
176.727	13.1881	2.70303	
179.586	13.1431	2.76147	
182.491	13.0837	2.81991	
185.442	13.0190	2.87959	
188.442	12.9519	2.94053	
191.489	12.8835	3.00276	
194.587	12.8147	3.06631	
197.734	12.7467	3.13120	
200.932	12.6841	3.19331	
204.182	12.6161	3.24985	
207.485	12.5434	3.30739	
210.840	12.4684	3.36595	
214.251	12.3917	3.42555	
217.716	12.3140	3.48620	
221.237	12.2367	3.54793	
224.816	12.1661	3.61075	
228.452	12.0911	3.65164	
232.147	12.0053	3.69210	
235.902	11.9121	3.73301	
239.717	11.8207	3.77438	
243.595	11.7185	3.78814	
247.535	11.5944	3.79930	
251.538	11.4492	3.81049	
255.607	11.2864	3.82461	
259.741	11.1086	3.84037	
263.942	10.9182	3.85619	
268.211	10.7022	3.85408	
272.549	10.4528	3.85196	
276.957	10.1665	3.84985	
281.437	9.83651	3.84774	
285.989	9.44174	3.86052	
290.615	9.00533	3.89716	
295.315	8.51429	3.94893	
300.092	7.94682	4.00866	
304.945	7.24429	4.11110	
309.878	6.40671	4.27135	
314.890	5.36277	4.63441	
319.983	4.24320	5.34224	
325.158	3.04666	6.31104	
330.418	2.21694	8.05634	
335.762	1.85085	9.54134	
341.192	1.69962	11.1689	
346.711	1.73459	12.7512	
352.319	2.17710	14.4137	
358.017	2.80549	15.8486	
363.808	3.74771	17.0674	
369.692	4.59280	17.9578	
375.672	5.43720	18.7673	
381.748	6.35355	19.4919	
387.922	7.17439	19.9322	
394.197	7.83964	20.3823	
400.573	8.47001	20.8930	
407.052	9.12111	21.4226	
413.635	9.81859	21.9657	
420.326	10.6382	22.4405	
427.124	11.4240	22.8025	
434.032	12.2421	23.1160	
441.052	12.9902	23.3204	
448.186	13.6668	23.5265	
455.435	14.3250	23.7329	
462.802	14.9671	23.9349	
470.287	15.6012	24.1385	
477.894	16.2286	24.3440	
485.623	16.8630	24.5677	
493.478	17.5299	24.8033	
501.459	18.2364	25.0412	
509.570	19.1154	25.2814	
517.812	19.9685	25.2284	
526.187	20.6976	25.1592	
534.698	21.3753	25.0903	
543.346	22.0410	25.0159	
552.134	22.6711	24.9115	
561.065	23.2599	24.7988	
570.139	23.7926	24.6911	
579.361	24.3221	24.6442	
588.732	24.8650	24.6133	
598.254	25.4331	24.5928	
607.930	26.0274	24.5733	
617.763	26.6579	24.5531	
627.755	27.3664	24.5237	
637.908	28.1409	24.3859	
648.226	28.9159	24.0889	
658.711	29.5498	23.6912	
669.365	30.0802	23.2991	
680.191	30.5409	22.9575	
691.193	30.9912	22.6541	
702.372	31.4645	22.3598	
713.733	31.9351	22.0278	
725.277	32.3631	21.6724	
737.008	32.7591	21.3222	
748.928	33.1330	20.9779	
761.042	33.4909	20.6390	
773.351	33.8377	20.3015	
785.859	34.1717	19.9576	
798.570	34.4820	19.6096	
811.486	34.7728	19.2675	
824.611	35.0485	18.9313	
837.949	35.3126	18.6011	
851.502	35.5660	18.2730	
865.274	35.8083	17.9466	
879.269	36.0367	17.6226	
893.491	36.2535	17.3044	
907.943	36.4614	16.9919	
922.628	36.6651	16.6850	
937.551	36.8595	16.3720	
952.715	37.0427	16.0618	
968.124	37.2136	15.7549	
983.783	37.3754	15.4539	
999.695	37.5307	15.1573	
1015.86	37.6826	14.8649	
1032.29	37.8247	14.5653	
1048.99	37.9555	14.2689	
1065.96	38.0737	13.9758	
1083.20	38.1816	13.6886	
1100.72	38.2809	13.4074	
1118.52	38.3724	13.1320	
1136.61	38.4569	12.8622	
1155.	38.5347	12.5980	
1173.68	38.6064	12.3392	
1192.66	38.6722	12.0857	
1211.95	38.7326	11.8374	
1231.55	38.7876	11.5943	
1251.47	38.8376	11.3564	
1271.72	38.8829	11.1238	
1292.29	38.9244	10.8965	
1313.19	38.9621	10.6737	
1334.43	38.9960	10.4556	
1356.01	39.0265	10.2420	
1377.94	39.0538	10.0325	
1400.23	39.0779	9.82741	
1422.88	39.0993	9.62653	
1445.89	39.1187	9.42979	
1469.28	39.1373	9.23574	
1493.04	39.1557	9.04366	
1517.19	39.1686	8.84678	
1541.73	39.1742	8.65307	
1566.67	39.1737	8.46373	
1592.01	39.1687	8.27858	
1617.76	39.1597	8.09740	
1643.92	39.1468	7.92001	
1670.51	39.1303	7.74668	
1697.53	39.1105	7.57712	
1724.99	39.0898	7.41119	
1752.89	39.0654	7.24435	
1781.24	39.0353	7.07977	
1810.05	38.9998	6.91787	
1839.32	38.9589	6.75946	
1869.07	38.9131	6.60472	
1899.30	38.8627	6.45372	
1930.02	38.8079	6.30611	
1961.24	38.7484	6.16183	
1992.96	38.6833	6.02076	
2025.20	38.6169	5.88555	
2057.95	38.5457	5.74787	
2091.24	38.4669	5.61290	
2125.06	38.3815	5.48022	
2159.43	38.2888	5.34989	
2194.36	38.1884	5.22230	
2229.85	38.0799	5.09695	
2265.92	37.9622	4.97401	
2302.57	37.8346	4.85347	
2339.81	37.6958	4.73513	
2377.66	37.5444	4.61907	
2416.11	37.3788	4.50526	
2455.19	37.1970	4.39365	
2494.90	36.9962	4.28412	
2535.26	36.7732	4.17669	
2576.26	36.5237	4.07135	
2617.93	36.2419	3.96804	
2660.27	35.9202	3.86678	
2703.30	35.5474	3.76736	
2747.03	35.1074	3.66990	
2791.46	34.5743	3.57434	
2836.61	33.9039	3.48060	
2882.49	33.0094	3.38869	
2929.11	31.6760	3.29847	
2976.48	28.9958	3.21011	
3003.70	14.7330	3.16103	
3003.90	14.7337	11.1098	
3024.63	28.1608	10.9941	
3073.55	30.7488	10.7290	
3123.26	30.8088	10.4714	
3146.	24.6198	10.3570	
3146.20	24.6245	14.2279	
3173.78	32.0599	14.0392	
3225.11	34.0375	13.6990	
3277.27	35.1250	13.3669	
3330.28	35.7872	13.0426	
3384.15	35.9073	12.7262	
3411.80	32.7294	12.5687	
3412.	32.7321	14.5451	
3438.88	36.5794	14.3814	
3494.50	37.8695	14.0524	
3551.02	38.7086	13.7287	
3608.46	39.3773	13.4097	
3666.82	39.9425	13.0962	
3726.13	40.4344	12.7884	
3786.40	40.8701	12.4860	
3847.64	41.2600	12.1887	
3909.87	41.6115	11.8969	
3973.11	41.9299	11.6099	
4037.38	42.2195	11.3291	
4102.68	42.4845	11.0535	
4169.03	42.7267	10.7828	
4236.46	42.9489	10.5180	
4304.98	43.1532	10.2582	
4374.62	43.3409	10.0037	
4445.37	43.5136	9.75445	
4517.27	43.6726	9.51041	
4590.33	43.8190	9.27164	
4664.58	43.9538	9.03778	
4740.03	44.0778	8.80902	
4816.69	44.1918	8.58531	
4894.60	44.2966	8.36644	
4973.77	44.3929	8.15253	
5054.21	44.4811	7.94330	
5135.96	44.5619	7.73887	
5219.03	44.6357	7.53908	
5303.44	44.7030	7.34400	
5389.22	44.7644	7.15330	
5476.39	44.8200	6.96707	
5564.97	44.8703	6.78518	
5654.98	44.9156	6.60763	
5746.44	44.9563	6.43436	
5839.39	44.9926	6.26516	
5933.83	45.0248	6.10007	
6029.81	45.0532	5.93892	
6127.33	45.0779	5.78179	
6226.44	45.0993	5.62841	
6327.15	45.1175	5.47883	
6429.48	45.1328	5.33298	
6533.48	45.1452	5.19070	
6639.15	45.1551	5.05201	
6746.54	45.1625	4.91679	
6855.65	45.1676	4.78490	
6966.54	45.1705	4.65638	
7079.22	45.1714	4.53119	
7193.72	45.1704	4.40910	
7310.07	45.1677	4.29011	
7428.31	45.1632	4.17426	
7548.45	45.1573	4.06138	
7670.54	45.1499	3.95138	
7794.61	45.1412	3.84422	
7920.68	45.1311	3.73970	
8048.79	45.1198	3.63812	
8178.98	45.1075	3.53903	
8311.26	45.0941	3.44265	
8445.69	45.0797	3.34870	
8582.29	45.0644	3.25735	
8721.11	45.0484	3.16834	
8862.16	45.0316	3.08161	
9005.50	45.0140	2.99718	
9151.16	44.9956	2.91501	
9299.17	44.9766	2.83505	
9449.58	44.9571	2.75725	
9602.42	44.9370	2.68147	
9757.73	44.9163	2.60772	
9915.55	44.8952	2.53606	
10075.9	44.8737	2.46622	
10238.9	44.8517	2.39825	
10404.5	44.8293	2.33211	
10572.8	44.8065	2.26775	
10743.8	44.7833	2.20513	
10917.6	44.7598	2.14420	
11094.2	44.7360	2.08492	
11273.6	44.7118	2.02724	
11455.9	44.6873	1.97112	
11641.2	44.6625	1.91653	
11829.5	44.6374	1.86342	
12020.8	44.6120	1.81175	
12215.3	44.5864	1.76149	
12412.8	44.5604	1.71260	
12613.6	44.5340	1.66504	
12817.6	44.5074	1.61878	
13025.0	44.4805	1.57378	
13235.6	44.4531	1.53001	
13449.7	44.4254	1.48744	
13667.2	44.3974	1.44603	
13888.3	44.3689	1.40575	
14112.9	44.3399	1.36658	
14341.2	44.3104	1.32848	
14573.1	44.2804	1.29142	
14808.9	44.2498	1.25539	
15048.4	44.2186	1.22033	
15291.8	44.1866	1.18624	
15539.1	44.1539	1.15309	
15790.4	44.1202	1.12085	
16045.8	44.0856	1.08949	
16305.4	44.0499	1.05899	
16569.1	44.0129	1.02933	
16837.1	43.9746	1.00048	
17109.4	43.9347	0.972425	
17386.1	43.8930	0.945141	
17667.4	43.8492	0.918606	
17953.1	43.8031	0.892800	
18243.5	43.7543	0.867702	
18538.6	43.7023	0.843293	
18838.4	43.6466	0.819554	
19143.1	43.5864	0.796466	
19452.7	43.5210	0.774012	
19767.4	43.4491	0.752173	
20087.1	43.3692	0.730933	
20412.0	43.2792	0.710275	
20742.1	43.1763	0.690183	
21077.6	43.0559	0.670641	
21418.5	42.9113	0.651635	
21765.0	42.7309	0.633147	
22117.0	42.4931	0.615166	
22474.7	42.1488	0.597677	
22838.2	41.5423	0.580664	
23207.6	38.2348	0.564117	
23219.8	33.4904	0.563583	
23220.0	33.4905	3.66324	
23583.0	41.6618	3.57592	
23964.4	42.4200	3.48779	
24352.0	42.8696	3.40131	
24745.9	43.1911	3.31648	
25146.2	43.4411	3.23330	
25552.9	43.6448	3.15178	
25966.2	43.8158	3.07189	
26386.1	43.9624	2.99363	
26812.9	44.0899	2.91700	
27246.6	44.2020	2.84197	
27687.3	44.3015	2.76854	
28135.1	44.3903	2.69669	
28590.2	44.4701	2.62640	
29052.6	44.5424	2.55767	
29522.5	44.6144	2.49046	
30000.0	44.6452	2.42477	
