E(eV)	f1	f2
10.0000	-9999.	1.51919	
10.1617	-9999.	1.51438	
10.3261	-9999.	1.51486	
10.4931	-9999.	1.54335	
10.6628	-9999.	1.57238	
10.8353	-9999.	1.60195	
11.0105	-9999.	1.63207	
11.1886	-9999.	1.66277	
11.3696	-9999.	1.70320	
11.5535	-9999.	1.79614	
11.7404	-9999.	1.89247	
11.9303	-9999.	1.98441	
12.1232	-9999.	2.08083	
12.3193	-9999.	2.18192	
12.5186	-9999.	2.28793	
12.7210	-9999.	2.39908	
12.9268	-9999.	2.51500	
13.1359	-9999.	2.63274	
13.3483	-9999.	2.75599	
13.5642	-9999.	2.88500	
13.7836	-9999.	3.02006	
14.0066	-9999.	3.16144	
14.2331	-9999.	3.29139	
14.4633	-9999.	3.42241	
14.6972	-9999.	3.55864	
14.9350	-9999.	3.70029	
15.1765	-9999.	3.84758	
15.4220	-9999.	4.00073	
15.6714	-9999.	4.15722	
15.9249	-9999.	4.31627	
16.1825	-9999.	4.48140	
16.4442	-9999.	4.65285	
16.7102	-9999.	4.83086	
16.9805	-9999.	5.01568	
17.2551	-9999.	5.19592	
17.5342	-9999.	5.35976	
17.8178	-9999.	5.52876	
18.1060	-9999.	5.70309	
18.3988	-9999.	5.88292	
18.6964	-9999.	6.06842	
18.9988	-9999.	6.21828	
19.3061	2.36290	6.34963	
19.6184	2.49084	6.48374	
19.9357	2.62131	6.62070	
20.2581	2.75833	6.76054	
20.5858	2.90708	6.90334	
20.9187	3.08159	7.04915	
21.2571	3.27035	7.16466	
21.6009	3.45778	7.24279	
21.9503	3.63272	7.32177	
22.3053	3.79793	7.40161	
22.6661	3.96566	7.48233	
23.0327	4.13697	7.56392	
23.4052	4.32583	7.64641	
23.7838	4.52598	7.70866	
24.1685	4.72418	7.75957	
24.5594	4.91526	7.81082	
24.9566	5.11788	7.86240	
25.3602	5.33916	7.91433	
25.7704	5.60852	7.96660	
26.1872	5.89743	7.89954	
26.6108	6.15535	7.79586	
27.0412	6.34183	7.69354	
27.4786	6.52375	7.59257	
27.9230	6.69375	7.48282	
28.3747	6.85038	7.33690	
28.8336	6.97284	7.19383	
29.3000	7.07484	7.05354	
29.7739	7.16284	6.91599	
30.2554	7.24490	6.78113	
30.7448	7.31450	6.64215	
31.2421	7.36925	6.46927	
31.7474	7.38966	6.30089	
32.2609	7.38578	6.13689	
32.7827	7.36030	5.97716	
33.3129	7.31390	5.82159	
33.8517	7.24664	5.67020	
34.3992	7.15790	5.52305	
34.9556	7.04570	5.37973	
35.5210	6.90896	5.24090	
36.0955	6.74541	5.10755	
36.6793	6.55929	4.97761	
37.2726	6.33624	4.84148	
37.8754	6.05924	4.70041	
38.4880	5.71726	4.56700	
39.1106	5.29880	4.44643	
39.7431	4.77529	4.32904	
40.0039	4.51009	4.28209	
40.5878	3.74893	4.22575	
40.9979	3.09986	4.30523	
41.3041	2.51648	4.49992	
41.5802	2.07541	4.78132	
42.2527	1.03443	5.72479	
42.8360	0.438102E-01	6.67715	
43.1761	-0.109399	8.15369	
43.7675	0.133196	9.55299	
44.2033	0.522509	10.4363	
44.6702	1.00796	11.1473	
45.2616	1.61535	11.8910	
45.7285	2.04140	12.2800	
46.1020	2.27325	12.5972	
46.7245	2.66297	13.2520	
47.1292	3.01234	13.7550	
47.6272	3.55272	14.2790	
48.1564	4.19227	14.7104	
48.9353	5.14469	15.1279	
48.9968	5.21749	15.1610	
49.4948	5.76233	15.3039	
50.0551	6.35466	15.4646	
50.5175	6.77962	15.4955	
50.9325	7.10901	15.5677	
51.7563	7.73272	15.7628	
52.5934	8.40526	15.9726	
53.4441	9.13482	16.1596	
54.3085	9.90814	16.3146	
55.1869	10.7066	16.3764	
56.0795	11.5058	16.3781	
56.9865	12.3596	16.2964	
57.9082	13.1896	16.0509	
58.8448	13.8834	15.7804	
59.7966	14.5501	15.5144	
60.7638	15.2000	15.2529	
61.7466	15.8288	14.8624	
62.7453	16.3893	14.4808	
63.7601	16.9381	14.1247	
64.7914	17.5455	13.6724	
65.8394	18.0522	13.1695	
66.9043	18.4956	12.6291	
67.9864	18.8747	12.0929	
69.0860	19.2359	11.5755	
70.2034	19.5928	10.9582	
71.3389	19.7895	10.3641	
72.4927	19.9779	9.83749	
73.6652	20.1806	9.23769	
74.8567	20.3003	8.66331	
76.0675	20.3711	8.08614	
77.2978	20.3955	7.54503	
78.5480	20.3849	7.00414	
79.8185	20.3501	6.50205	
81.1095	20.2957	6.00102	
82.4214	20.2033	5.52507	
83.7545	20.0859	5.05894	
85.1091	19.9475	4.63197	
86.4857	19.7710	4.16623	
87.8845	19.5593	3.74588	
89.3060	19.3009	3.37120	
90.7504	19.0197	3.03461	
92.2183	18.7281	2.75449	
93.7098	18.4381	2.50261	
95.2255	18.1510	2.29916	
96.7657	17.8654	2.12066	
98.3308	17.5808	1.96186	
99.9212	17.3050	1.84575	
101.537	17.0389	1.74552	
103.180	16.7857	1.68020	
104.849	16.5445	1.62616	
106.544	16.3190	1.60282	
108.268	16.1201	1.57981	
110.019	15.9351	1.55958	
111.798	15.7580	1.54230	
113.606	15.5859	1.52521	
115.444	15.4169	1.51411	
117.311	15.2510	1.51162	
119.209	15.0841	1.51075	
121.137	14.9267	1.52941	
123.096	14.7775	1.54831	
125.087	14.6318	1.57598	
127.110	14.4966	1.61162	
129.166	14.3705	1.64805	
131.255	14.2507	1.68597	
133.378	14.1355	1.72502	
135.535	14.0246	1.76498	
137.728	13.9179	1.80831	
139.955	13.8157	1.85286	
142.219	13.7173	1.89785	
144.519	13.6223	1.94390	
146.857	13.5299	1.99032	
149.232	13.4396	2.03743	
151.646	13.3512	2.08566	
154.098	13.2645	2.13556	
156.591	13.1805	2.18696	
159.124	13.0993	2.23959	
161.697	13.0214	2.29108	
164.313	12.9439	2.34246	
166.970	12.8688	2.39500	
169.671	12.7976	2.44694	
172.415	12.7254	2.49184	
175.204	12.6531	2.53756	
178.038	12.5811	2.58412	
180.917	12.5068	2.62164	
183.843	12.4298	2.65944	
186.817	12.3493	2.69777	
189.838	12.2670	2.73280	
192.909	12.1803	2.76406	
196.029	12.0865	2.79568	
199.200	11.9894	2.82763	
202.422	11.8867	2.85543	
205.696	11.7757	2.88350	
209.023	11.6593	2.91185	
212.403	11.5358	2.93785	
215.839	11.4025	2.96321	
219.330	11.2687	2.98879	
222.877	11.1247	3.00412	
226.482	10.9611	3.00949	
230.145	10.7792	3.01488	
233.868	10.5780	3.02025	
237.650	10.3542	3.01552	
241.494	10.0998	3.01080	
245.400	9.81356	3.00609	
249.369	9.49247	3.00771	
253.403	9.12986	3.01087	
257.501	8.71904	3.01404	
261.666	8.25140	3.02803	
265.898	7.68885	3.05031	
270.199	7.02524	3.07276	
274.569	6.26695	3.18222	
279.010	5.05363	3.31193	
280.127	4.67657	3.34504	
282.367	3.83931	3.70931	
284.663	3.17574	4.55103	
285.868	2.97190	4.98352	
288.049	2.76904	5.73799	
290.287	2.68129	6.33963	
291.722	2.63890	6.68778	
293.730	2.57283	7.08751	
295.739	2.49192	7.45976	
297.919	2.37608	7.83054	
300.100	2.25763	8.17208	
302.109	2.11591	8.43491	
304.017	1.89825	8.59801	
305.858	1.46381	8.72817	
307.030	1.04877	8.95085	
308.703	0.582941	9.64287	
310.640	0.312513	10.4103	
313.621	0.153360E-01	11.3558	
315.895	-0.379490	12.1082	
317.966	-0.860916	13.0428	
319.684	-1.09405	14.2048	
321.502	-1.03542	15.5096	
323.018	-0.745226	16.5866	
324.584	-0.213251	17.7435	
325.645	0.373235	18.4082	
326.655	1.00627	18.9221	
327.618	1.71792	19.2741	
328.075	2.05591	19.3612	
328.729	2.52905	19.3772	
329.585	2.98806	19.2992	
330.765	3.37681	19.1205	
331.621	3.53215	19.1520	
332.014	3.63947	19.2381	
332.572	3.84285	19.2212	
333.219	4.04774	19.2414	
334.031	4.14435	19.0060	
334.619	4.13706	19.2072	
335.159	4.14720	19.1687	
335.964	4.30532	19.4731	
336.994	4.36993	19.4147	
338.292	4.70381	20.0161	
339.135	5.14160	20.2770	
340.820	5.81363	19.8728	
343.750	5.96299	19.8174	
346.120	6.27693	20.0917	
347.906	6.38150	20.1724	
353.011	6.87593	20.5395	
358.721	7.37113	21.7551	
364.523	8.90402	22.4191	
370.419	10.2289	22.7504	
376.410	11.3747	22.6231	
382.498	12.1589	22.5184	
388.684	12.8099	22.4773	
394.971	13.4008	22.5009	
401.359	13.9916	22.5821	
407.851	14.5865	22.6370	
414.448	15.1614	22.6702	
421.151	15.6872	22.6728	
427.963	16.1458	22.6856	
434.885	16.5737	22.7193	
441.919	16.9481	22.6869	
449.066	17.0735	22.6005	
450.103	17.0299	22.5881	
454.761	16.4396	22.5302	
456.563	15.9125	22.7228	
457.438	15.5793	23.0754	
458.470	15.2264	23.4356	
459.140	14.8620	23.8105	
459.984	14.3134	24.6061	
460.764	13.5940	25.7847	
461.169	13.6805	27.2723	
461.624	14.3010	28.7102	
461.884	15.1950	29.7042	
462.143	16.2855	30.1211	
462.445	17.6141	30.2884	
462.843	19.2924	30.0248	
463.130	20.2369	29.3505	
463.703	21.2806	27.6533	
464.420	21.4706	26.1224	
465.009	21.2445	25.2324	
466.330	20.5503	24.0668	
467.949	19.5913	23.8488	
469.861	19.1203	24.0654	
472.766	19.3925	25.1411	
474.874	19.9580	24.9505	
477.036	20.2419	24.8039	
479.270	20.3658	24.6544	
481.341	20.2135	24.5504	
482.138	20.0283	24.6233	
482.806	19.7489	24.8271	
483.323	19.5698	25.2792	
483.861	19.7073	26.0415	
484.271	20.2124	26.5884	
484.637	20.8260	26.7566	
485.003	21.4332	26.7201	
485.757	22.4436	26.1002	
486.274	22.6594	25.3397	
486.941	22.4477	24.6597	
487.307	22.4348	24.5417	
488.858	21.9339	24.3745	
490.603	21.7517	24.3408	
492.116	21.6933	24.4580	
493.944	21.7267	24.6422	
495.284	21.8706	24.8047	
498.811	22.6499	25.2181	
502.679	23.3413	24.6396	
507.991	23.8484	24.3034	
516.207	24.6347	24.1655	
517.997	24.8998	24.1358	
524.839	25.6189	23.3068	
530.973	25.7330	22.5336	
539.209	25.6128	22.2545	
546.028	25.7636	22.2445	
554.860	26.1025	22.0578	
555.036	26.0860	22.0541	
563.914	26.3948	21.9969	
570.863	26.6856	21.9518	
580.096	27.1200	21.8610	
589.479	27.5882	21.7588	
599.013	28.1658	21.6440	
608.702	28.6311	21.1982	
618.547	28.8097	20.7750	
628.552	28.9909	20.7371	
638.718	29.3573	20.6330	
649.049	29.6254	20.4475	
659.546	30.0185	20.6008	
670.214	30.7512	20.4904	
681.054	31.3689	20.1154	
692.070	31.7196	19.7472	
703.263	32.0565	19.3843	
714.638	32.3440	19.0279	
726.197	32.5802	18.6918	
737.943	32.8048	18.4396	
749.878	33.0277	18.1909	
762.007	33.2753	17.9669	
774.332	33.5458	17.7473	
786.856	33.8201	17.5018	
799.583	34.0868	17.2193	
812.515	34.3266	16.9413	
825.657	34.5498	16.6613	
839.011	34.7568	16.3821	
852.582	34.9481	16.1076	
866.371	35.1238	15.8378	
880.384	35.2798	15.5874	
894.624	35.4432	15.3511	
909.094	35.6058	15.1183	
923.797	35.7648	14.8891	
938.739	35.9224	14.6696	
953.922	36.0817	14.4573	
969.351	36.2486	14.2481	
985.030	36.4498	14.0420	
1000.96	36.6500	13.7924	
1017.15	36.8189	13.5183	
1033.60	36.9643	13.2498	
1050.32	37.0969	12.9865	
1067.31	37.2212	12.7215	
1084.57	37.3309	12.4580	
1102.11	37.4291	12.1999	
1119.94	37.5180	11.9471	
1138.05	37.5988	11.6996	
1156.46	37.6724	11.4573	
1175.17	37.7393	11.2199	
1194.17	37.8000	10.9876	
1213.49	37.8551	10.7602	
1233.12	37.9053	10.5376	
1253.06	37.9511	10.3197	
1273.33	37.9936	10.1062	
1280.	38.0071	10.0377	
1294.	38.0321	9.88852	
1314.93	38.0562	9.68467	
1336.20	38.0830	9.48502	
1357.81	38.1073	9.28951	
1379.77	38.1284	9.09781	
1402.09	38.1466	8.91018	
1424.77	38.1629	8.72657	
1447.81	38.1791	8.54657	
1471.23	38.1959	8.36737	
1495.02	38.2134	8.18884	
1519.20	38.2248	7.99777	
1543.78	38.2232	7.81051	
1568.74	38.2142	7.62770	
1594.12	38.1992	7.44914	
1619.90	38.1787	7.27474	
1646.10	38.1532	7.10439	
1672.73	38.1229	6.93783	
1699.78	38.0879	6.77527	
1727.27	38.0487	6.61664	
1755.21	38.0055	6.46022	
1783.60	37.9569	6.30712	
1812.45	37.9031	6.15732	
1841.76	37.8440	6.01092	
1871.55	37.7795	5.86800	
1901.82	37.7095	5.72849	
1932.58	37.6341	5.59260	
1963.84	37.5531	5.45976	
1995.61	37.4655	5.32974	
2000.	37.4530	5.31216	
2026.	37.3771	5.21187	
2052.	37.2985	5.11315	
2079.	37.2127	5.01414	
2106.	37.1226	4.91804	
2134.	37.0245	4.82181	
2161.	36.9253	4.73203	
2190.	36.8132	4.63873	
2218.	36.6993	4.55164	
2247.	36.5748	4.46440	
2277.	36.4386	4.37721	
2306.	36.2989	4.29570	
2337.	36.1401	4.21143	
2367.	35.9758	4.13268	
2398.	35.7937	4.05398	
2429.	35.5975	3.97798	
2461.	35.3777	3.90211	
2493.	35.1374	3.82884	
2526.	34.8641	3.75581	
2559.	34.5592	3.68532	
2592.	34.2152	3.61717	
2626.	33.8082	3.54938	
2660.	33.3300	3.48390	
2695.	32.7328	3.41879	
2730.	31.9715	3.35592	
2766.	30.8865	3.29347	
2802.	29.0699	3.23316	
2837.80	14.5340	3.17502	
2838.	14.5358	10.9156	
2839.	20.4074	10.9100	
2876.	28.8893	10.7061	
2914.	30.0681	10.5038	
2952.	29.6453	10.3076	
2966.80	24.0181	10.2328	
2967.	24.0261	14.0216	
2990.	30.9932	13.8674	
3029.	32.7930	13.6125	
3069.	33.8596	13.3596	
3109.	34.5970	13.1140	
3150.	35.1153	12.8700	
3191.	35.3291	12.6336	
3223.90	33.0448	12.4492	
3224.10	33.0512	14.0287	
3232.	35.1847	13.9822	
3275.	36.5959	13.7332	
3317.	37.3264	13.4966	
3361.	37.9226	13.2534	
3405.	38.4225	13.0155	
3449.	38.8569	12.7836	
3494.	39.2504	12.5517	
3540.	39.6103	12.3207	
3586.	39.9351	12.0950	
3633.	40.2358	11.8695	
3680.	40.5100	11.6509	
3729.	40.7718	11.4281	
3777.	41.0066	11.2150	
3827.	41.2312	10.9995	
3877.	41.4380	10.7893	
3927.	41.6291	10.5851	
3979.	41.8122	10.3774	
4031.	41.9809	10.1761	
4083.	42.1374	9.98077	
4137.	42.2879	9.78257	
4191.	42.4269	9.59024	
4245.	42.5556	9.40323	
4301.	42.6791	9.21477	
4357.	42.7935	9.03168	
4414.	42.9012	8.85074	
4472.	43.0027	8.67187	
4530.	43.0965	8.49817	
4589.	43.1848	8.32667	
4649.	43.2677	8.15726	
4710.	43.3456	7.99029	
4771.	43.4175	7.82814	
4834.	43.4859	7.66573	
4897.	43.5489	7.50828	
4961.	43.6077	7.35307	
5026.	43.6626	7.20036	
5091.	43.7130	7.05221	
5158.	43.7606	6.90405	
5225.	43.8040	6.76068	
5294.	43.8449	6.61751	
5363.	43.8820	6.47872	
5433.	43.9162	6.34234	
5504.	43.9476	6.20841	
5576.	43.9763	6.07681	
5649.	44.0024	5.94754	
5722.	44.0257	5.82250	
5797.	44.0471	5.69789	
5873.	44.0662	5.57581	
5950.	44.0832	5.45612	
6027.	44.0981	5.34012	
6106.	44.1112	5.22503	
6186.	44.1225	5.11207	
6267.	44.1319	5.00153	
6349.	44.1398	4.89327	
6432.	44.1460	4.78730	
6516.	44.1508	4.68345	
6601.	44.1542	4.58187	
6687.	44.1562	4.48239	
6774.	44.1569	4.38515	
6863.	44.1565	4.28897	
6952.	44.1550	4.19580	
7043.	44.1523	4.10372	
7135.	44.1486	4.01371	
7229.	44.1438	3.92490	
7323.	44.1382	3.83909	
7419.	44.1316	3.75416	
7516.	44.1242	3.67146	
7614.	44.1161	3.59058	
7713.	44.1072	3.51147	
7814.	44.0976	3.43377	
7916.	44.0873	3.35766	
8019.	44.0763	3.28347	
8124.	44.0647	3.21055	
8230.	44.0526	3.13917	
8338.	44.0398	3.06922	
8447.	44.0267	3.00079	
8557.	44.0130	2.93402	
8669.	43.9987	2.86851	
8782.	43.9842	2.80465	
8897.	43.9692	2.74180	
9013.	43.9538	2.68056	
9131.	43.9379	2.62047	
9250.	43.9218	2.56197	
9371.	43.9053	2.50455	
9494.	43.8885	2.44803	
9618.	43.8714	2.39314	
9743.	43.8541	2.33957	
9900.58	43.8323	2.27472	
10060.7	43.8100	2.21162	
10223.4	43.7873	2.15023	
10388.8	43.7643	2.09049	
10556.8	43.7410	2.03237	
10727.6	43.7173	1.97583	
10901.1	43.6933	1.92083	
11077.4	43.6689	1.86732	
11256.6	43.6443	1.81527	
11438.6	43.6194	1.76465	
11623.6	43.5941	1.71541	
11811.7	43.5686	1.66751	
12002.7	43.5427	1.62094	
12196.8	43.5165	1.57563	
12394.1	43.4900	1.53158	
12594.6	43.4631	1.48874	
12798.3	43.4358	1.44708	
13005.3	43.4082	1.40656	
13215.6	43.3801	1.36717	
13429.4	43.3516	1.32886	
13646.6	43.3226	1.29162	
13867.3	43.2930	1.25541	
14091.6	43.2629	1.22019	
14319.5	43.2321	1.18596	
14551.1	43.2007	1.15268	
14786.5	43.1684	1.12032	
15025.6	43.1353	1.08886	
15268.7	43.1013	1.05827	
15515.6	43.0661	1.02854	
15766.6	43.0298	0.999633	
16021.6	42.9921	0.971532	
16280.7	42.9529	0.944215	
16544.1	42.9119	0.917659	
16811.6	42.8689	0.891843	
17083.6	42.8236	0.866748	
17359.9	42.7757	0.842354	
17640.6	42.7247	0.818640	
17926.0	42.6701	0.795588	
18215.9	42.6111	0.773181	
18510.5	42.5470	0.751399	
18809.9	42.4767	0.730226	
19114.2	42.3986	0.709644	
19423.3	42.3107	0.689638	
19737.5	42.2102	0.670191	
20056.7	42.0930	0.651287	
20381.1	41.9524	0.632911	
20710.8	41.7776	0.615049	
21045.7	41.5481	0.597686	
21386.1	41.2183	0.580808	
21732.0	40.6482	0.564402	
22083.5	38.3598	0.548453	
22117.1	32.7242	0.546968	
22117.3	32.7244	3.59436	
22440.7	40.6444	3.51506	
22803.7	41.4237	3.42946	
23172.5	41.8770	3.34537	
23547.3	42.1991	3.26281	
23928.2	42.4487	3.18177	
24315.2	42.6518	3.10227	
24708.5	42.8222	3.02430	
25108.1	42.9681	2.94786	
25514.2	43.0950	2.87294	
25926.9	43.2066	2.79954	
26346.2	43.3056	2.72765	
26772.4	43.3941	2.65725	
27205.4	43.4735	2.58835	
27645.4	43.5451	2.52092	
28092.6	43.6099	2.45496	
28546.9	43.6688	2.39044	
29008.7	43.7229	2.32736	
29477.9	43.7818	2.26568	
29954.6	43.7882	2.20541	
30000.0	43.8005	2.19980	
