E(eV)	f1	f2
10.0000	-9999.	5.20241	
10.1617	-9999.	5.36005	
10.3261	-9999.	5.52247	
10.4931	-9999.	5.63017	
10.6628	-9999.	5.66221	
10.8353	-9999.	5.69443	
11.0106	-9999.	5.71762	
11.1886	-9999.	5.72709	
11.3696	-9999.	5.73659	
11.5535	-9999.	5.74610	
11.7404	-9999.	5.75558	
11.9303	-9999.	5.74367	
12.1232	-9999.	5.73179	
12.3193	-9999.	5.71993	
12.5186	-9999.	5.70809	
12.7210	-9999.	5.69116	
12.9268	-9999.	5.66798	
13.1359	-9999.	5.64489	
13.3483	-9999.	5.62190	
13.5642	-9999.	5.59899	
13.7836	-9999.	5.57619	
14.0066	-9999.	5.55347	
14.2331	-9999.	5.53085	
14.4633	-9999.	5.50832	
14.6973	-9999.	5.48588	
14.9350	-9999.	5.46416	
15.1765	-9999.	5.47179	
15.4220	-9999.	5.47945	
15.6714	-9999.	5.48710	
15.9249	-9999.	5.49477	
16.1825	-9999.	5.50245	
16.4442	-9999.	5.51014	
16.7102	-9999.	5.48519	
16.9805	-9999.	5.45830	
17.2551	-9999.	5.43154	
17.5342	-9999.	5.40491	
17.8178	-9999.	5.37840	
18.1060	-9999.	5.35997	
18.3989	-9999.	5.34380	
18.6964	-9999.	5.32768	
18.9988	-9999.	5.31161	
19.3061	-9999.	5.29558	
19.6184	-9999.	5.27674	
19.9357	-9999.	5.22931	
20.2582	-9999.	5.18230	
20.5858	-9999.	5.13572	
20.9188	-9999.	5.08955	
21.2571	-9999.	5.04380	
21.6009	-9999.	4.97976	
21.9503	-9999.	4.85658	
22.3053	-9999.	4.73645	
22.6661	-9999.	4.61930	
23.0327	-9999.	4.50120	
23.4053	-9999.	4.28248	
23.7838	-9999.	4.07439	
24.1685	-9999.	3.87642	
24.5594	-9999.	3.68806	
24.9566	-9999.	3.50886	
25.3603	-9999.	3.33836	
25.7705	-9999.	3.17615	
26.1873	-9999.	3.02182	
26.6109	-9999.	2.87499	
27.0413	-9999.	2.73530	
27.4786	-9999.	2.60239	
27.9231	-9999.	2.47594	
28.3747	-9999.	2.35563	
28.8337	-9999.	2.24117	
29.3000	7.81210	2.13227	
29.7739	7.77264	2.02867	
30.2555	7.73078	1.93009	
30.7449	7.68731	1.83631	
31.2421	7.64329	1.74503	
31.7475	7.59476	1.65666	
32.2609	7.54326	1.57276	
32.7827	7.48954	1.49311	
33.3130	7.43389	1.41750	
33.8518	7.37649	1.34571	
34.3993	7.31752	1.27756	
34.9557	7.25709	1.21287	
35.5211	7.19532	1.15144	
36.0956	7.13248	1.09313	
36.6794	7.06867	1.03679	
37.2727	7.00248	0.982849	
37.8755	6.93433	0.931714	
38.4882	6.86438	0.883238	
39.1107	6.79256	0.837286	
39.7432	6.71871	0.793723	
40.3861	6.64258	0.752427	
41.0393	6.56315	0.713280	
41.7031	6.47810	0.678280	
42.3776	6.39431	0.651254	
43.0630	6.31141	0.625303	
43.7595	6.22705	0.600387	
44.4673	6.13977	0.576630	
45.1865	6.05017	0.556066	
45.9174	5.95778	0.536235	
46.6600	5.85925	0.517111	
47.4147	5.75263	0.507983	
48.1816	5.65006	0.504227	
48.9609	5.54687	0.500499	
49.7528	5.43915	0.496798	
50.5576	5.32589	0.496344	
51.3753	5.20726	0.496500	
52.2062	5.07947	0.496658	
53.0506	4.93771	0.499383	
53.9087	4.77801	0.503749	
54.7806	4.58914	0.516424	
55.6667	4.33738	0.531435	
56.5670	3.96589	0.711860	
57.4820	3.76831	1.14783	
58.4117	3.91120	1.47960	
59.3564	4.02255	1.60918	
60.3165	4.11620	1.64922	
61.2921	4.16779	1.65907	
62.2834	4.10086	1.55870	
63.2908	3.98540	1.58412	
64.3145	3.85329	1.60996	
65.3547	3.71941	1.70211	
66.4118	3.60305	1.80064	
67.4859	3.49493	1.90700	
68.5775	3.39162	2.02051	
69.6867	3.29206	2.14079	
70.8138	3.19656	2.26823	
71.9591	3.10795	2.40325	
73.1230	3.02786	2.53434	
74.3057	2.94133	2.66485	
75.5076	2.85209	2.80208	
76.7289	2.76166	2.94638	
77.9699	2.67068	3.09810	
79.2310	2.57929	3.25764	
80.5125	2.48724	3.42540	
81.8147	2.39199	3.60179	
83.1380	2.29482	3.79869	
84.4827	2.20835	4.01211	
85.8491	2.13130	4.23751	
87.2377	2.06442	4.47559	
88.6487	2.01156	4.72704	
90.0825	1.98340	4.99261	
91.5395	1.98281	5.23688	
93.0201	1.96942	5.47150	
94.5246	1.95483	5.71661	
96.0535	1.94508	5.97271	
97.6071	1.94410	6.24029	
99.1858	1.95559	6.51984	
100.790	1.98647	6.81193	
102.420	2.05687	7.11710	
104.077	2.15896	7.37029	
105.760	2.23502	7.60472	
107.471	2.30298	7.84660	
109.209	2.37114	8.09618	
110.975	2.44374	8.35369	
112.770	2.52391	8.61940	
114.594	2.61557	8.89355	
116.448	2.72500	9.17644	
118.331	2.87341	9.45712	
120.245	3.01602	9.69210	
122.190	3.14924	9.93291	
124.166	3.28130	10.1797	
126.175	3.41817	10.4327	
128.215	3.56279	10.6919	
130.289	3.71854	10.9575	
132.397	3.89005	11.2298	
134.538	4.09069	11.5088	
136.714	4.32489	11.7464	
138.925	4.53966	11.9622	
141.172	4.74380	12.1819	
143.456	4.95076	12.4056	
145.776	5.16419	12.6335	
148.134	5.38908	12.8656	
150.530	5.64366	13.1013	
152.964	5.89986	13.2929	
155.439	6.14556	13.4874	
157.953	6.39191	13.6847	
160.507	6.64329	13.8849	
163.103	6.90320	14.0880	
165.742	7.17585	14.2941	
168.422	7.47221	14.5032	
171.146	7.79913	14.6762	
173.915	8.10884	14.8250	
176.727	8.40802	14.9753	
179.586	8.70975	15.1271	
182.491	9.01757	15.2805	
185.442	9.33525	15.4355	
188.442	9.66739	15.5920	
191.489	10.0225	15.7501	
194.587	10.4583	15.8792	
197.734	10.8558	15.9185	
200.932	11.2145	15.9579	
204.182	11.5646	15.9973	
207.485	11.9143	16.0369	
210.840	12.2802	16.0751	
214.251	12.6402	16.0661	
217.716	12.9846	16.0491	
221.237	13.3097	16.0256	
224.816	13.6240	16.0020	
228.452	13.9308	15.9785	
232.147	14.2323	15.9551	
235.902	14.5299	15.9315	
239.717	14.8248	15.9081	
243.595	15.1184	15.8849	
247.535	15.4118	15.8615	
251.538	15.7061	15.8381	
255.607	16.0025	15.8146	
259.741	16.3030	15.7914	
263.942	16.6102	15.7682	
268.211	16.9286	15.7453	
272.549	17.2691	15.7222	
276.957	17.6616	15.6548	
281.437	18.0279	15.5322	
285.989	18.3558	15.3759	
290.615	18.6547	15.2162	
295.315	18.9311	15.0580	
300.092	19.1928	14.9015	
304.945	19.4423	14.7465	
309.878	19.6816	14.5932	
314.890	19.9120	14.4416	
319.983	20.1346	14.2917	
325.158	20.3505	14.1433	
330.418	20.5602	13.9963	
335.762	20.7641	13.8508	
341.192	20.9634	13.7073	
346.711	21.1585	13.5647	
352.319	21.3494	13.4235	
358.017	21.5370	13.2841	
363.808	21.7223	13.1463	
369.692	21.9060	13.0098	
375.672	22.0892	12.8746	
381.748	22.2738	12.7407	
387.922	22.4642	12.6049	
394.197	22.6642	12.4637	
400.573	22.8618	12.2932	
407.052	23.0364	12.1128	
413.635	23.1962	11.9347	
420.326	23.3462	11.7599	
427.124	23.4891	11.5878	
434.032	23.6255	11.4175	
441.052	23.7567	11.2501	
448.186	23.8874	11.0842	
455.435	24.0123	10.9150	
462.802	24.1307	10.7448	
470.287	24.2415	10.5754	
477.894	24.3458	10.4089	
485.623	24.4452	10.2448	
493.478	24.5401	10.0832	
501.459	24.6310	9.92421	
509.570	24.7187	9.76800	
517.812	24.8051	9.61373	
526.187	24.8893	9.45967	
534.698	24.9704	9.30428	
543.346	25.0465	9.14959	
552.134	25.1209	8.99757	
561.065	25.1928	8.83996	
570.139	25.2558	8.68154	
579.361	25.3117	8.52741	
588.732	25.3632	8.37670	
598.254	25.4116	8.22908	
607.930	25.4572	8.08404	
617.763	25.5009	7.94153	
627.755	25.5453	7.80096	
637.908	25.5894	7.65600	
648.226	25.6287	7.50350	
658.711	25.6534	7.34742	
669.365	25.6628	7.19460	
680.191	25.6596	7.06113	
691.193	25.6608	6.94248	
702.372	25.6757	6.82881	
713.733	25.6945	6.70560	
725.277	25.7048	6.57686	
737.008	25.7089	6.45050	
748.928	25.7087	6.32662	
761.042	25.7053	6.20507	
773.351	25.6994	6.08515	
785.859	25.6906	5.96488	
798.570	25.6759	5.84480	
811.486	25.6561	5.72708	
824.611	25.6319	5.61178	
837.949	25.6037	5.49887	
851.502	25.5715	5.38761	
865.274	25.5350	5.27801	
879.269	25.4936	5.17013	
893.491	25.4475	5.06442	
907.943	25.3969	4.96093	
922.628	25.3428	4.85961	
937.551	25.2832	4.75681	
952.715	25.2169	4.65526	
968.124	25.1430	4.55507	
983.783	25.0617	4.45706	
999.695	24.9729	4.36118	
1015.86	24.8762	4.26740	
1032.29	24.7714	4.17564	
1048.99	24.6578	4.08507	
1065.96	24.5334	3.99563	
1083.20	24.3972	3.90798	
1100.72	24.2482	3.82225	
1118.52	24.0848	3.73840	
1136.61	23.9053	3.65645	
1155.	23.7075	3.57632	
1173.68	23.4885	3.49798	
1192.66	23.2446	3.42124	
1211.95	22.9710	3.34624	
1231.55	22.6617	3.27298	
1251.47	22.3083	3.20135	
1271.72	21.8995	3.13149	
1292.29	21.4189	3.06339	
1313.19	20.8413	2.99669	
1334.43	20.1259	2.93141	
1356.01	19.2002	2.86751	
1377.94	17.9159	2.80518	
1400.23	15.8838	2.74413	
1422.88	11.2425	2.68425	
1433.80	-9.16067	2.65616	
1434.	-9.15379	16.4055	
1445.89	11.9859	16.2342	
1469.28	16.9350	15.9067	
1493.04	19.3189	15.5857	
1517.19	20.8997	15.2740	
1541.73	22.0662	14.9689	
1566.67	22.9617	14.6699	
1592.01	23.6407	14.3768	
1617.76	24.0830	14.0897	
1643.92	23.9200	13.8082	
1651.90	21.5003	13.7244	
1652.10	21.5059	15.6001	
1670.51	25.0654	15.3744	
1697.53	26.1650	15.0534	
1724.99	26.9569	14.7391	
1752.89	27.6121	14.4185	
1781.24	28.1758	14.1004	
1810.05	28.6722	13.7862	
1839.32	29.1154	13.4790	
1869.07	29.5163	13.1787	
1899.30	29.8817	12.8849	
1930.02	30.2170	12.5980	
1961.24	30.5263	12.3174	
1992.96	30.8102	12.0429	
2025.20	31.0855	11.7824	
2057.95	31.3440	11.5096	
2091.24	31.5785	11.2412	
2125.06	31.7954	10.9772	
2159.43	31.9963	10.7179	
2194.36	32.1827	10.4632	
2229.85	32.3557	10.2132	
2265.92	32.5165	9.96774	
2302.57	32.6655	9.72676	
2339.81	32.8040	9.49082	
2377.66	32.9325	9.25902	
2416.11	33.0515	9.03199	
2455.19	33.1616	8.80949	
2494.90	33.2639	8.59185	
2535.26	33.3582	8.37818	
2576.26	33.4453	8.16932	
2617.93	33.5257	7.96484	
2660.27	33.5997	7.76451	
2703.30	33.6677	7.56869	
2747.03	33.7299	7.37695	
2791.46	33.7867	7.18953	
2836.61	33.8385	7.00650	
2882.49	33.8858	6.82741	
2929.11	33.9286	6.65222	
2976.48	33.9669	6.48092	
3024.63	34.0012	6.31378	
3073.55	34.0319	6.15069	
3123.26	34.0593	5.99126	
3173.78	34.0831	5.83532	
3225.11	34.1038	5.68325	
3277.27	34.1216	5.53479	
3330.28	34.1366	5.38979	
3384.15	34.1490	5.24833	
3438.88	34.1589	5.11032	
3494.50	34.1665	4.97558	
3551.02	34.1719	4.84418	
3608.46	34.1752	4.71598	
3666.82	34.1766	4.59096	
3726.13	34.1762	4.46898	
3786.40	34.1741	4.35005	
3847.64	34.1703	4.23413	
3909.87	34.1651	4.12106	
3973.11	34.1585	4.01086	
4037.38	34.1505	3.90339	
4102.68	34.1412	3.79871	
4169.03	34.1308	3.69664	
4236.46	34.1194	3.59721	
4304.98	34.1068	3.50029	
4374.62	34.0933	3.40589	
4445.37	34.0790	3.31390	
4517.27	34.0637	3.22426	
4590.33	34.0477	3.13699	
4664.58	34.0310	3.05195	
4740.03	34.0136	2.96915	
4816.69	33.9955	2.88846	
4894.60	33.9768	2.80987	
4973.77	33.9576	2.73340	
5054.21	33.9378	2.65895	
5135.96	33.9176	2.58640	
5219.03	33.8969	2.51575	
5303.44	33.8757	2.44699	
5389.22	33.8541	2.38004	
5476.39	33.8322	2.31490	
5564.97	33.8099	2.25139	
5654.98	33.7872	2.18962	
5746.44	33.7641	2.12952	
5839.39	33.7408	2.07105	
5933.83	33.7172	2.01411	
6029.81	33.6933	1.95872	
6127.33	33.6690	1.90474	
6226.44	33.6445	1.85226	
6327.15	33.6197	1.80112	
6429.48	33.5946	1.75142	
6533.48	33.5692	1.70309	
6639.15	33.5436	1.65594	
6746.54	33.5175	1.61012	
6855.65	33.4912	1.56560	
6966.54	33.4646	1.52219	
7079.22	33.4377	1.48005	
7193.72	33.4104	1.43895	
7310.07	33.3826	1.39897	
7428.31	33.3545	1.36011	
7548.45	33.3259	1.32229	
7670.54	33.2968	1.28550	
7794.61	33.2672	1.24970	
7920.68	33.2370	1.21487	
8048.79	33.2061	1.18098	
8178.98	33.1746	1.14801	
8311.26	33.1423	1.11595	
8445.69	33.1091	1.08475	
8582.29	33.0750	1.05439	
8721.11	33.0399	1.02486	
8862.16	33.0035	0.996119	
9005.50	32.9659	0.968173	
9151.16	32.9267	0.940974	
9299.17	32.8859	0.914524	
9449.58	32.8431	0.888791	
9602.42	32.7982	0.863753	
9757.73	32.7508	0.839401	
9915.55	32.7005	0.815708	
10075.9	32.6469	0.792654	
10238.9	32.5893	0.770227	
10404.5	32.5271	0.748408	
10572.8	32.4593	0.727180	
10743.8	32.3848	0.706528	
10917.6	32.3020	0.686435	
11094.2	32.2088	0.666886	
11273.6	32.1023	0.647866	
11455.9	31.9779	0.629361	
11641.2	31.8291	0.611357	
11829.5	31.6446	0.593839	
12020.8	31.4039	0.576795	
12215.3	31.0623	0.560210	
12412.8	30.4902	0.544073	
12613.6	28.7508	0.528371	
12657.7	22.3125	0.525017	
12657.9	22.3128	3.85811	
12817.6	30.2182	3.78519	
13025.0	31.1582	3.69390	
13235.6	31.6814	3.60420	
13449.7	32.0478	3.51608	
13667.2	32.3297	3.42956	
13888.3	32.5582	3.34463	
14112.9	32.7495	3.26132	
14341.2	32.9132	3.17960	
14573.1	33.0555	3.09948	
14808.9	33.1806	3.02096	
15048.4	33.2917	2.94403	
15291.8	33.3909	2.86868	
15539.1	33.4800	2.79490	
15790.4	33.5605	2.72267	
16045.8	33.6333	2.65199	
16305.4	33.6994	2.58283	
16569.1	33.7596	2.51520	
16837.1	33.8144	2.44905	
17109.4	33.8645	2.38439	
17386.1	33.9102	2.32119	
17667.4	33.9520	2.25943	
17953.1	33.9901	2.19909	
18243.5	34.0250	2.14015	
18538.6	34.0569	2.08259	
18838.4	34.0861	2.02640	
19143.1	34.1126	1.97154	
19452.7	34.1369	1.91799	
19767.4	34.1589	1.86574	
20087.1	34.1789	1.81476	
20412.0	34.1971	1.76502	
20742.1	34.2135	1.71652	
21077.6	34.2284	1.66921	
21418.5	34.2417	1.62308	
21765.0	34.2536	1.57811	
22117.0	34.2643	1.53428	
22474.7	34.2737	1.49155	
22838.2	34.2820	1.44992	
23207.6	34.2893	1.40935	
23583.0	34.2955	1.36982	
23964.4	34.3009	1.33132	
24352.0	34.3054	1.29382	
24745.9	34.3091	1.25729	
25146.2	34.3121	1.22173	
25552.9	34.3144	1.18709	
25966.2	34.3161	1.15338	
26386.1	34.3172	1.12055	
26812.9	34.3177	1.08860	
27246.6	34.3177	1.05750	
27687.3	34.3172	1.02724	
28135.1	34.3163	0.997790	
28590.2	34.3149	0.969135	
29052.6	34.3132	0.941255	
29522.5	34.3111	0.914132	
30000.0	34.3087	0.887748	
