E(eV)	f1	f2
10.0000	-9999.	0.187643	
10.1617	-9999.	0.195336	
10.3261	-9999.	0.203345	
10.4931	-9999.	0.211681	
10.6628	-9999.	0.220360	
10.8353	-9999.	0.229394	
11.0106	-9999.	0.238799	
11.1886	-9999.	0.248589	
11.3696	-9999.	0.258781	
11.5535	-9999.	0.269391	
11.7404	-9999.	0.280435	
11.9303	-9999.	0.291933	
12.1232	-9999.	0.303902	
12.3193	-9999.	0.315122	
12.5186	-9999.	0.326091	
12.7210	-9999.	0.337442	
12.9268	-9999.	0.349187	
13.1359	-9999.	0.361342	
13.3483	-9999.	0.373919	
13.5642	-9999.	0.386934	
13.7836	-9999.	0.399806	
14.0066	-9999.	0.411591	
14.2331	-9999.	0.423723	
14.4633	-9999.	0.436213	
14.6973	-9999.	0.449071	
14.9350	-9999.	0.462308	
15.1765	-9999.	0.475936	
15.4220	-9999.	0.488902	
15.6714	-9999.	0.501112	
15.9249	-9999.	0.513626	
16.1825	-9999.	0.526453	
16.4442	-9999.	0.539600	
16.7102	-9999.	0.553075	
16.9805	-9999.	0.566841	
17.2551	-9999.	0.579760	
17.5342	-9999.	0.592972	
17.8178	-9999.	0.606486	
18.1060	-9999.	0.620308	
18.3989	-9999.	0.634445	
18.6964	-9999.	0.653063	
18.9988	-9999.	0.676143	
19.3061	-9999.	0.700039	
19.6184	-9999.	0.724780	
19.9357	-9999.	0.784056	
20.2582	-9999.	0.883332	
20.5858	-9999.	1.09093	
20.9188	-9999.	1.46853	
21.2571	-9999.	1.67010	
21.6009	-9999.	1.69471	
21.9503	-9999.	1.71967	
22.3053	-9999.	1.86242	
22.6661	-9999.	2.36732	
23.0327	-9999.	2.78527	
23.4053	-9999.	2.93280	
23.7838	-9999.	2.76046	
24.1685	-9999.	3.25280	
24.5594	-9999.	6.09720	
24.9566	-9999.	6.85931	
25.3603	-9999.	8.39557	
25.7705	-9999.	9.52920	
26.1873	-9999.	10.4409	
26.6109	-9999.	11.0802	
27.0413	-9999.	11.4150	
27.4786	-9999.	11.6261	
27.9231	-9999.	11.8410	
28.3747	-9999.	12.0600	
28.8337	-9999.	12.1251	
29.3000	3.67989	12.1732	
29.7739	4.48481	12.2215	
30.2555	5.29747	11.8462	
30.7449	5.78823	11.4180	
31.2421	6.13025	11.1392	
31.7475	6.45226	10.8773	
32.2609	6.72631	10.6236	
32.7827	6.97408	10.4245	
33.3130	7.21595	10.2292	
33.8518	7.45001	10.0374	
34.3993	7.66944	9.81508	
34.9557	7.83314	9.58734	
35.5211	7.95815	9.39447	
36.0956	8.06517	9.21136	
36.6794	8.12784	9.05710	
37.2727	8.21301	8.95389	
37.8755	8.31454	8.85188	
38.4882	8.42555	8.75100	
39.1107	8.53469	8.62261	
39.7432	8.62101	8.49238	
40.3861	8.68864	8.36412	
41.0393	8.73853	8.24511	
41.7031	8.77940	8.13213	
42.3776	8.80390	8.02070	
43.0630	8.79972	7.91079	
43.7595	8.75345	7.85618	
44.4673	8.74672	7.83991	
45.1865	8.75021	7.82365	
45.9174	8.74685	7.82414	
46.6600	8.76634	7.83959	
47.4147	8.79872	7.85506	
48.1816	8.83798	7.87056	
48.9609	8.88246	7.88610	
49.7528	8.93104	7.90166	
50.5576	8.98296	7.91726	
51.3753	9.03769	7.93289	
52.2062	9.09488	7.94854	
53.0506	9.15429	7.96424	
53.9087	9.21576	7.97995	
54.7806	9.27926	7.99571	
55.6667	9.34485	8.01149	
56.5670	9.41271	8.02730	
57.4820	9.48317	8.04314	
58.4117	9.55682	8.05902	
59.3564	9.63468	8.07493	
60.3165	9.71869	8.09086	
61.2921	9.81342	8.10683	
62.2834	9.93583	8.12258	
63.2908	10.0538	8.06486	
64.3145	10.1420	8.00755	
65.3547	10.2121	7.95066	
66.4118	10.2712	7.89416	
67.4859	10.3210	7.83806	
68.5775	10.3626	7.78237	
69.6867	10.3965	7.72707	
70.8138	10.4231	7.67216	
71.9591	10.4424	7.61765	
73.1230	10.4545	7.56352	
74.3057	10.4592	7.50977	
75.5076	10.4560	7.45641	
76.7289	10.4442	7.40343	
77.9699	10.4206	7.35082	
79.2310	10.3904	7.31125	
80.5125	10.3583	7.27231	
81.8147	10.3221	7.23357	
83.1380	10.2803	7.19505	
84.4827	10.2327	7.15672	
85.8491	10.1803	7.11861	
87.2377	10.1288	7.08069	
88.6487	10.0658	7.02009	
90.0825	9.98247	6.95914	
91.5395	9.88342	6.89871	
93.0201	9.77015	6.83880	
94.5246	9.64395	6.77942	
96.0535	9.50854	6.72055	
97.6071	9.38136	6.65219	
99.1858	9.21400	6.52657	
100.790	8.99910	6.40332	
102.420	8.74616	6.28240	
104.077	8.46619	6.16376	
105.760	8.18923	6.04736	
107.471	7.98315	5.76749	
109.209	7.47769	5.31242	
110.975	6.74254	4.89326	
112.770	5.78224	4.56480	
114.594	4.68996	4.31173	
116.448	3.39911	4.08331	
118.331	1.84323	3.88138	
120.245	-0.126763	3.68942	
122.190	-2.69754	3.61752	
124.166	-6.66110	3.60649	
126.175	-11.9181	5.74129	
128.215	-17.7288	10.0510	
130.289	-24.0933	17.7139	
132.397	-29.4826	40.6437	
134.538	-14.4932	61.6573	
136.714	11.3596	48.3033	
138.925	13.4249	38.5673	
141.172	13.1399	39.2774	
143.456	18.5220	38.9314	
145.776	20.9031	34.8056	
148.134	21.9813	32.8474	
150.530	23.1756	31.1344	
152.964	24.2213	29.5108	
155.439	25.0857	27.9718	
157.953	25.7767	26.5131	
160.507	26.3055	25.1305	
163.103	26.6707	23.8199	
165.742	26.7506	22.6759	
168.422	26.8924	21.7892	
171.146	27.0758	20.9373	
173.915	27.2272	20.1186	
176.727	27.3378	19.3320	
179.586	27.3986	18.5761	
182.491	27.3767	17.8498	
185.442	27.2860	17.2560	
188.442	27.2475	16.7480	
191.489	27.2237	16.2550	
194.587	27.1940	15.7765	
197.734	27.1491	15.3120	
200.932	27.0809	14.8613	
204.182	26.9758	14.4238	
207.485	26.7704	14.0581	
210.840	26.6234	13.7991	
214.251	26.5218	13.5450	
217.716	26.4233	13.2955	
221.237	26.3171	13.0506	
224.816	26.1873	12.8102	
228.452	25.9581	12.6363	
232.147	25.8060	12.5773	
235.902	25.7218	12.5186	
239.717	25.6607	12.4602	
243.595	25.6159	12.4020	
247.535	25.5822	12.3441	
251.538	25.5558	12.2865	
255.607	25.5329	12.2292	
259.741	25.5085	12.1721	
263.942	25.4668	12.1228	
268.211	25.4417	12.1103	
272.549	25.4323	12.0977	
276.957	25.4318	12.0852	
281.437	25.4356	12.0726	
285.989	25.4406	12.0601	
290.615	25.4434	12.0476	
295.315	25.4377	12.0351	
300.092	25.4022	12.0226	
304.945	25.3565	12.0903	
309.878	25.3530	12.1845	
314.890	25.3857	12.2794	
319.983	25.4379	12.3750	
325.158	25.5074	12.4714	
330.418	25.5936	12.5686	
335.762	25.6974	12.6665	
341.192	25.8259	12.7651	
346.711	25.9744	12.8353	
352.319	26.1169	12.8938	
358.017	26.2625	12.9592	
363.808	26.4205	13.0250	
369.692	26.6021	13.0911	
375.672	26.8053	13.1317	
381.748	27.0028	13.1524	
387.922	27.2045	13.1731	
394.197	27.4602	13.1938	
400.573	27.7017	13.1095	
407.052	27.8954	13.0206	
413.635	28.0665	12.9322	
420.326	28.2227	12.8444	
427.124	28.3670	12.7573	
434.032	28.5013	12.6707	
441.052	28.6266	12.5847	
448.186	28.7414	12.4993	
455.435	28.8451	12.4204	
462.802	28.9490	12.3501	
470.287	29.0520	12.2801	
477.894	29.1526	12.2106	
485.623	29.2505	12.1415	
493.478	29.3457	12.0728	
501.459	29.4384	12.0045	
509.570	29.5288	11.9365	
517.812	29.6172	11.8690	
526.187	29.7048	11.8018	
534.698	29.7945	11.7350	
543.346	29.8858	11.6573	
552.134	29.9705	11.5735	
561.065	30.0471	11.4825	
570.139	30.1124	11.3886	
579.361	30.1681	11.2969	
588.732	30.2169	11.2063	
598.254	30.2598	11.1169	
607.930	30.2970	11.0282	
617.763	30.3294	10.9402	
627.755	30.3597	10.8523	
637.908	30.3863	10.7576	
648.226	30.4044	10.6529	
658.711	30.4035	10.5422	
669.365	30.3827	10.4327	
680.191	30.3440	10.3400	
691.193	30.3044	10.2601	
702.372	30.2741	10.1827	
713.733	30.2414	10.0891	
725.277	30.1884	9.98484	
737.008	30.1177	9.88152	
748.928	30.0316	9.77931	
761.042	29.9310	9.67802	
773.351	29.8166	9.57598	
785.859	29.6854	9.46862	
798.570	29.5290	9.35722	
811.486	29.3476	9.24738	
824.611	29.1406	9.13867	
837.949	28.9064	9.03111	
851.502	28.6417	8.92277	
865.274	28.3419	8.81322	
879.269	27.9994	8.70279	
893.491	27.6092	8.59372	
907.943	27.1642	8.48604	
922.628	26.6564	8.37975	
937.551	26.0696	8.26918	
952.715	25.3843	8.15848	
968.124	24.5735	8.04787	
983.783	23.6009	7.93903	
999.695	22.4089	7.83112	
1015.86	20.9003	7.72409	
1032.29	18.8895	7.61393	
1048.99	15.9650	7.50411	
1065.96	10.8265	7.39460	
1083.20	-23.6926	7.28668	
1083.30	-29.0953	7.28606	
1083.50	-29.0928	31.6445	
1100.72	10.9604	31.6276	
1118.52	16.5827	31.6104	
1136.61	19.9638	31.5930	
1155.	22.4386	31.5757	
1173.68	24.4225	31.5585	
1192.66	26.0997	31.5410	
1211.95	27.5683	31.5236	
1231.55	28.8870	31.5063	
1251.47	30.0941	31.4896	
1271.72	31.2161	31.4732	
1292.29	32.2725	31.4573	
1313.19	33.2781	31.4416	
1334.43	34.2445	31.4259	
1356.01	35.1815	31.4100	
1377.94	36.0981	31.3941	
1400.23	37.0040	31.3783	
1422.88	37.9111	31.3624	
1445.89	38.8430	31.3469	
1469.28	39.8460	31.2682	
1493.04	40.9287	31.0935	
1517.19	41.6229	30.5206	
1541.73	41.7905	30.3890	
1566.67	43.0125	31.1611	
1592.01	44.5181	30.6883	
1617.76	45.4958	30.0368	
1643.92	46.2652	29.3991	
1670.51	46.7543	28.7751	
1697.53	46.9732	28.4528	
1724.99	47.8102	28.6694	
1752.89	48.8525	28.2188	
1781.24	49.6129	27.6305	
1810.05	50.2561	27.0516	
1839.32	50.8268	26.4846	
1869.07	51.3445	25.9293	
1899.30	51.8191	25.3856	
1930.02	52.2577	24.8536	
1961.24	52.6651	24.3327	
1992.96	53.0410	23.8226	
2025.20	53.4090	23.3356	
2057.95	53.7569	22.8334	
2091.24	54.0741	22.3398	
2125.06	54.3695	21.8549	
2159.43	54.6444	21.3780	
2194.36	54.9009	20.9102	
2229.85	55.1397	20.4501	
2265.92	55.3619	19.9990	
2302.57	55.5692	19.5565	
2339.81	55.7624	19.1221	
2377.66	55.9418	18.6956	
2416.11	56.1082	18.2774	
2455.19	56.2624	17.8675	
2494.90	56.4051	17.4655	
2535.26	56.5370	17.0716	
2576.26	56.6586	16.6856	
2617.93	56.7703	16.3072	
2660.27	56.8730	15.9367	
2703.30	56.9664	15.5733	
2747.03	57.0515	15.2180	
2791.46	57.1286	14.8694	
2836.61	57.1981	14.5287	
2882.49	57.2599	14.1944	
2929.11	57.3150	13.8681	
2976.48	57.3638	13.5481	
3024.63	57.4061	13.2349	
3073.55	57.4420	12.9279	
3123.26	57.4716	12.6279	
3173.78	57.4960	12.3348	
3225.11	57.5151	12.0476	
3277.27	57.5288	11.7668	
3330.28	57.5375	11.4920	
3384.15	57.5414	11.2232	
3438.88	57.5405	10.9603	
3494.50	57.5350	10.7033	
3551.02	57.5251	10.4519	
3608.46	57.5108	10.2060	
3666.82	57.4923	9.96565	
3726.13	57.4696	9.73066	
3786.40	57.4428	9.50083	
3847.64	57.4119	9.27620	
3909.87	57.3770	9.05659	
3973.11	57.3380	8.84191	
4037.38	57.2951	8.63210	
4102.68	57.2482	8.42703	
4169.03	57.1972	8.22642	
4236.46	57.1420	8.03052	
4304.98	57.0826	7.83891	
4374.62	57.0188	7.65174	
4445.37	56.9505	7.46877	
4517.27	56.8774	7.28994	
4590.33	56.7995	7.11527	
4664.58	56.7164	6.94441	
4740.03	56.6277	6.77752	
4816.69	56.5331	6.61443	
4894.60	56.4322	6.45499	
4973.77	56.3244	6.29934	
5054.21	56.2091	6.14716	
5135.96	56.0854	5.99837	
5219.03	55.9525	5.85303	
5303.44	55.8092	5.71104	
5389.22	55.6542	5.57232	
5476.39	55.4858	5.43666	
5564.97	55.3018	5.30422	
5654.98	55.0996	5.17468	
5746.44	54.8757	5.04828	
5839.39	54.6255	4.92457	
5933.83	54.3427	4.80378	
6029.81	54.0184	4.68575	
6127.33	53.6395	4.57018	
6226.44	53.1852	4.45744	
6327.15	52.6205	4.34728	
6429.48	51.8768	4.23965	
6533.48	50.7892	4.13439	
6639.15	48.7285	4.03168	
6716.10	32.8682	3.95950	
6716.30	32.8693	11.4876	
6746.54	46.6005	11.3890	
6855.65	50.1964	11.0435	
6966.54	51.3796	10.7083	
7079.22	51.8655	10.3833	
7193.72	51.7456	10.0681	
7310.07	47.2296	9.76239	
7311.70	43.8229	9.75823	
7311.90	43.8242	13.5243	
7428.31	52.6752	13.1281	
7548.45	53.6945	12.7375	
7670.54	53.9953	12.3584	
7736.70	50.8676	12.1601	
7736.90	50.8705	13.9217	
7794.61	54.5294	13.7754	
7920.68	55.7174	13.4646	
8048.79	56.4843	13.1578	
8178.98	57.0922	12.8558	
8311.26	57.6046	12.5583	
8445.69	58.0492	12.2654	
8582.29	58.4413	11.9768	
8721.11	58.7910	11.6931	
8862.16	59.1056	11.4145	
9005.50	59.3903	11.1405	
9151.16	59.6486	10.8712	
9299.17	59.8838	10.6069	
9449.58	60.0988	10.3477	
9602.42	60.2955	10.0933	
9757.73	60.4757	9.84361	
9915.55	60.6408	9.59912	
10075.9	60.7925	9.35927	
10238.9	60.9315	9.12426	
10404.5	61.0589	8.89408	
10572.8	61.1758	8.66866	
10743.8	61.2829	8.44800	
10917.6	61.3808	8.23204	
11094.2	61.4704	8.02074	
11273.6	61.5521	7.81405	
11455.9	61.6264	7.61192	
11641.2	61.6940	7.41429	
11829.5	61.7552	7.22111	
12020.8	61.8105	7.03231	
12215.3	61.8603	6.84785	
12412.8	61.9049	6.66765	
12613.6	61.9446	6.49165	
12817.6	61.9798	6.31979	
13025.0	62.0107	6.15199	
13235.6	62.0376	5.98820	
13449.7	62.0608	5.82834	
13667.2	62.0805	5.67235	
13888.3	62.0969	5.52016	
14112.9	62.1103	5.37169	
14341.2	62.1208	5.22688	
14573.1	62.1285	5.08566	
14808.9	62.1338	4.94796	
15048.4	62.1366	4.81371	
15291.8	62.1373	4.68284	
15539.1	62.1359	4.55528	
15790.4	62.1325	4.43097	
16045.8	62.1273	4.30984	
16305.4	62.1204	4.19181	
16569.1	62.1119	4.07683	
16837.1	62.1020	3.96482	
17109.4	62.0906	3.85573	
17386.1	62.0780	3.74949	
17667.4	62.0641	3.64602	
17953.1	62.0491	3.54528	
18243.5	62.0331	3.44720	
18538.6	62.0161	3.35172	
18838.4	61.9981	3.25877	
19143.1	61.9794	3.16830	
19452.7	61.9598	3.08025	
19767.4	61.9394	2.99456	
20087.1	61.9184	2.91118	
20412.0	61.8968	2.83004	
20742.1	61.8745	2.75110	
21077.6	61.8517	2.67430	
21418.5	61.8283	2.59960	
21765.0	61.8045	2.52692	
22117.0	61.7802	2.45624	
22474.7	61.7555	2.38749	
22838.2	61.7303	2.32063	
23207.6	61.7048	2.25561	
23583.0	61.6789	2.19238	
23964.4	61.6526	2.13090	
24352.0	61.6260	2.07112	
24745.9	61.5990	2.01300	
25146.2	61.5718	1.95650	
25552.9	61.5441	1.90157	
25966.2	61.5162	1.84817	
26386.1	61.4879	1.79627	
26812.9	61.4593	1.74582	
27246.6	61.4304	1.69678	
27687.3	61.4010	1.64912	
28135.1	61.3713	1.60281	
28590.2	61.3413	1.55779	
29052.6	61.3111	1.51405	
29522.5	61.2843	1.47154	
30000.0	61.2356	1.43024	
