E(eV)	f1	f2
10.0000	-9999.	3.97344	
10.1617	-9999.	3.94095	
10.3261	-9999.	3.90871	
10.4931	-9999.	3.87675	
10.6628	-9999.	3.84504	
10.8353	-9999.	3.81359	
11.0106	-9999.	3.78240	
11.1886	-9999.	3.75146	
11.3696	-9999.	3.72078	
11.5535	-9999.	3.64688	
11.7404	-9999.	3.57189	
11.9303	-9999.	3.49845	
12.1232	-9999.	3.42652	
12.3193	-9999.	3.30574	
12.5186	-9999.	3.15089	
12.7210	-9999.	3.00330	
12.9268	-9999.	2.86262	
13.1359	-9999.	2.72511	
13.3483	-9999.	2.48316	
13.5642	-9999.	2.26270	
13.7836	-9999.	2.06181	
14.0066	-9999.	1.89987	
14.2331	-9999.	1.75449	
14.4633	-9999.	1.62024	
14.6973	-9999.	1.49626	
14.9350	-9999.	1.38177	
15.1765	-9999.	1.27604	
15.4220	-9999.	1.18242	
15.6714	-9999.	1.10196	
15.9249	-9999.	1.02698	
16.1825	-9999.	0.957105	
16.4442	-9999.	0.892970	
16.7102	-9999.	0.849459	
16.9805	-9999.	0.808068	
17.2551	-9999.	0.768695	
17.5342	-9999.	0.736073	
17.8178	-9999.	0.710695	
18.1060	-9999.	0.686194	
18.3989	-9999.	0.662536	
18.6964	-9999.	0.646280	
18.9988	-9999.	0.633782	
19.3061	-9999.	0.621526	
19.6184	-9999.	0.609507	
19.9357	-9999.	0.602556	
20.2582	-9999.	0.600727	
20.5858	-9999.	0.598903	
20.9188	-9999.	0.598391	
21.2571	-9999.	0.611967	
21.6009	-9999.	0.625852	
21.9503	-9999.	0.640967	
22.3053	-9999.	0.671939	
22.6661	-9999.	0.704407	
23.0327	-9999.	0.759304	
23.4053	-9999.	0.855339	
23.7838	-9999.	1.13890	
24.1685	-9999.	1.85247	
24.5594	-9999.	3.05677	
24.9566	-9999.	3.71424	
25.3603	-9999.	4.00664	
25.7705	-9999.	4.16638	
26.1873	-9999.	4.33249	
26.6109	-9999.	4.50523	
27.0413	-9999.	4.64204	
27.4786	-9999.	4.71650	
27.9231	-9999.	4.79216	
28.3747	-9999.	4.86903	
28.8337	-9999.	4.94188	
29.3000	-0.617521	4.84384	
29.7739	-0.530603	4.74774	
30.2555	-0.493238	4.65354	
30.7449	-0.504236	4.53693	
31.2421	-0.579138	4.42302	
31.7475	-0.740259	4.35143	
32.2609	-0.891436	4.35427	
32.7827	-1.04661	4.35711	
33.3130	-1.23597	4.35995	
33.8518	-1.49552	4.43789	
34.3993	-1.69890	4.57867	
34.9557	-1.88562	4.72392	
35.5211	-2.07385	4.87378	
36.0956	-2.28420	5.04642	
36.6794	-2.47739	5.25911	
37.2727	-2.65929	5.48077	
37.8755	-2.83839	5.71177	
38.4882	-3.02366	5.95251	
39.1107	-3.23022	6.20530	
39.7432	-3.43246	6.52769	
40.3861	-3.61050	6.86683	
41.0393	-3.77494	7.22358	
41.7031	-3.92842	7.59887	
42.3776	-4.07153	7.99366	
43.0630	-4.20419	8.40895	
43.7595	-4.32668	8.84582	
44.4673	-4.44102	9.30963	
45.1865	-4.53474	9.80363	
45.9174	-4.60691	10.3239	
46.6600	-4.65499	10.8717	
47.4147	-4.67411	11.4486	
48.1816	-4.65234	12.0561	
48.9609	-4.56273	12.6958	
49.7528	-4.43830	13.2701	
50.5576	-4.31588	13.8664	
51.3753	-4.17074	14.4895	
52.2062	-3.98944	15.1406	
53.0506	-3.74917	15.8210	
53.9087	-3.39804	16.4976	
54.7806	-3.04284	17.0915	
55.6667	-2.68217	17.7067	
56.5670	-2.27866	18.3441	
57.4820	-1.80131	19.0045	
58.4117	-1.16270	19.6886	
59.3564	-0.460873	20.0565	
60.3165	0.129707	20.4000	
61.2921	0.670513	20.7493	
62.2834	1.20275	21.1046	
63.2908	1.73961	21.4660	
64.3145	2.29963	21.8321	
65.3547	2.86725	22.1597	
66.4118	3.43340	22.4921	
67.4859	4.00987	22.8296	
68.5775	4.60720	23.1721	
69.6867	5.23614	23.5197	
70.8138	5.92357	23.8726	
71.9591	6.64032	24.1389	
73.1230	7.35628	24.4043	
74.3057	8.09902	24.6726	
75.5076	8.91923	24.9438	
76.7289	9.76309	25.0654	
77.9699	10.5832	25.1833	
79.2310	11.4212	25.3018	
80.5125	12.3556	25.4208	
81.8147	13.2865	25.2904	
83.1380	14.1304	25.1553	
84.4827	14.9303	25.0209	
85.8491	15.7199	24.8872	
87.2377	16.5145	24.7543	
88.6487	17.3428	24.6220	
90.0825	18.3032	24.4095	
91.5395	19.1538	24.0449	
93.0201	19.9274	23.6857	
94.5246	20.6797	23.3319	
96.0535	21.4286	22.9834	
97.6071	22.1926	22.6400	
99.1858	22.9954	22.3018	
100.790	23.8941	21.9687	
102.420	25.1183	21.6405	
104.077	26.3331	20.5085	
105.760	27.0621	19.2823	
107.471	27.5490	18.1295	
109.209	27.8883	17.0456	
110.975	28.1232	16.0265	
112.770	28.2816	15.0683	
114.594	28.3843	14.1673	
116.448	28.4516	13.3203	
118.331	28.5212	12.5239	
120.245	28.6342	11.6421	
122.190	28.5830	10.7199	
124.166	28.4188	9.87078	
126.175	28.2007	9.08886	
128.215	27.9444	8.36888	
130.289	27.6604	7.70596	
132.397	27.3575	7.09555	
134.538	27.0417	6.53348	
136.714	26.7199	6.01594	
138.925	26.3990	5.53939	
141.172	26.0924	5.10060	
143.456	25.8509	4.69656	
145.776	25.5731	4.10482	
148.134	25.1581	3.55493	
150.530	24.6499	3.07869	
152.964	24.0595	2.66626	
155.439	23.4721	2.45191	
157.953	22.9265	2.26918	
160.507	22.3905	2.14900	
163.103	21.8667	2.06322	
165.742	21.3828	2.08757	
168.422	20.9480	2.12123	
171.146	20.5514	2.19082	
173.915	20.1926	2.27062	
176.727	19.8502	2.35332	
179.586	19.5147	2.47643	
182.491	19.2290	2.63391	
185.442	18.9866	2.80141	
188.442	18.8102	2.95840	
191.489	18.6334	3.08230	
194.587	18.4567	3.21138	
197.734	18.2923	3.34587	
200.932	18.1414	3.48600	
204.182	18.0055	3.63199	
207.485	17.8878	3.78409	
210.840	17.8000	3.94257	
214.251	17.7252	4.06524	
217.716	17.6481	4.18812	
221.237	17.5727	4.31471	
224.816	17.5048	4.44513	
228.452	17.4462	4.57949	
232.147	17.3993	4.71791	
235.902	17.3679	4.86052	
239.717	17.3628	5.00743	
243.595	17.3941	5.11627	
247.535	17.4057	5.19413	
251.538	17.4007	5.27318	
255.607	17.3938	5.35343	
259.741	17.3872	5.43490	
263.942	17.3830	5.51761	
268.211	17.3833	5.60158	
272.549	17.3935	5.68683	
276.957	17.4160	5.75534	
281.437	17.4310	5.81259	
285.989	17.4409	5.87041	
290.615	17.4531	5.92880	
295.315	17.4733	5.98777	
300.092	17.5238	6.03117	
304.945	17.5480	6.03085	
309.878	17.5522	6.03053	
314.890	17.5453	6.03020	
319.983	17.5306	6.02988	
325.158	17.5113	6.02956	
330.418	17.4967	6.02923	
335.762	17.4742	5.99582	
341.192	17.4281	5.95607	
346.711	17.3609	5.91657	
352.319	17.2779	5.87733	
358.017	17.1797	5.83836	
363.808	17.0666	5.79964	
369.692	16.9412	5.76118	
375.672	16.8043	5.71383	
381.748	16.6377	5.65477	
387.922	16.4418	5.59631	
394.197	16.2164	5.53847	
400.573	15.9588	5.48122	
407.052	15.6587	5.42457	
413.635	15.3143	5.38633	
420.326	14.9415	5.36289	
427.124	14.5275	5.33955	
434.032	14.0569	5.31631	
441.052	13.5023	5.29318	
448.186	12.8642	5.32243	
455.435	12.1419	5.36541	
462.802	11.2473	5.45708	
470.287	10.2553	5.64796	
477.894	9.09164	5.84552	
484.800	7.97502	6.02804	
485.000	7.87726	5.61713	
485.623	7.37798	5.73466	
493.478	4.97250	7.42813	
501.459	3.21411	9.62162	
509.570	1.78526	12.4628	
517.812	0.935425	16.1431	
526.187	2.94277	20.5203	
534.698	5.10761	22.2248	
543.346	7.30398	23.8532	
552.134	9.17847	24.6222	
561.065	10.7540	25.4160	
570.139	12.5226	25.9913	
579.361	13.9927	26.1106	
588.732	15.2416	26.2303	
598.254	16.4342	26.3507	
607.930	17.6582	26.3487	
617.763	18.6768	26.1323	
627.755	19.5244	25.9177	
637.908	20.2437	25.7049	
648.226	20.8447	25.5233	
658.711	21.3958	25.3932	
669.365	21.8923	25.2638	
680.191	22.3550	25.1350	
691.193	22.7845	24.8825	
702.372	22.4190	24.4398	
713.733	21.8164	25.1689	
725.277	21.9609	26.5068	
737.008	22.7980	27.9157	
748.928	24.5054	28.7472	
761.042	25.9928	28.7866	
773.351	27.2082	28.8260	
785.859	28.3562	28.6369	
798.570	29.3355	28.3879	
811.486	30.2241	28.1411	
824.611	31.0892	27.8964	
837.949	31.9210	27.5869	
851.502	32.6694	27.2397	
865.274	33.3558	26.8968	
879.269	33.9932	26.5583	
893.491	34.5632	26.2241	
907.943	35.1278	25.9951	
922.628	35.7312	25.7818	
937.551	36.3806	25.5701	
952.715	37.0694	25.3603	
968.124	38.0719	25.1521	
983.783	39.1540	24.3413	
999.695	39.3529	23.2912	
1015.86	39.5068	22.8698	
1032.29	39.8687	22.4083	
1048.99	40.2083	21.9512	
1065.96	40.5260	21.4987	
1083.20	40.8244	21.0554	
1100.72	41.1048	20.6212	
1118.52	41.3681	20.1961	
1136.61	41.6155	19.7796	
1155.	41.8479	19.3717	
1173.68	42.0660	18.9723	
1192.66	42.2707	18.5810	
1211.95	42.4628	18.1979	
1231.55	42.6431	17.8228	
1251.47	42.8122	17.4556	
1271.72	42.9705	17.0964	
1292.29	43.1196	16.7452	
1313.19	43.2597	16.4010	
1334.43	43.3910	16.0639	
1356.01	43.5140	15.7338	
1377.94	43.6292	15.4103	
1400.23	43.7368	15.0936	
1422.88	43.8371	14.7834	
1445.89	43.9303	14.4796	
1469.28	44.0166	14.1825	
1493.04	44.0960	13.8921	
1517.19	44.1704	13.6104	
1541.73	44.2408	13.3349	
1566.67	44.3072	13.0649	
1592.01	44.3693	12.8004	
1617.76	44.4276	12.5411	
1643.92	44.4818	12.2869	
1670.51	44.5325	12.0383	
1697.53	44.5803	11.7946	
1724.99	44.6287	11.5556	
1752.89	44.6734	11.3146	
1781.24	44.7115	11.0762	
1810.05	44.7435	10.8411	
1839.32	44.7697	10.6111	
1869.07	44.7916	10.3860	
1899.30	44.8093	10.1654	
1930.02	44.8230	9.94960	
1961.24	44.8332	9.73846	
1992.96	44.8388	9.53185	
2025.20	44.8470	9.33397	
2057.95	44.8534	9.13169	
2091.24	44.8532	8.93205	
2125.06	44.8487	8.73611	
2159.43	44.8402	8.54320	
2194.36	44.8278	8.35387	
2229.85	44.8112	8.16753	
2265.92	44.7909	7.98494	
2302.57	44.7670	7.80508	
2339.81	44.7388	7.62824	
2377.66	44.7066	7.45474	
2416.11	44.6703	7.28406	
2455.19	44.6298	7.11654	
2494.90	44.5850	6.95170	
2535.26	44.5355	6.78984	
2576.26	44.4813	6.63078	
2617.93	44.4221	6.47454	
2660.27	44.3577	6.32104	
2703.30	44.2877	6.17018	
2747.03	44.2119	6.02202	
2791.46	44.1297	5.87647	
2836.61	44.0409	5.73352	
2882.49	43.9447	5.59303	
2929.11	43.8405	5.45502	
2976.48	43.7274	5.31947	
3024.63	43.6047	5.18631	
3073.55	43.4712	5.05555	
3123.26	43.3255	4.92704	
3173.78	43.1659	4.80082	
3225.11	42.9905	4.67688	
3277.27	42.7967	4.55512	
3330.28	42.5811	4.43544	
3384.15	42.3396	4.31794	
3438.88	42.0664	4.20252	
3494.50	41.7538	4.08922	
3551.02	41.3906	3.97787	
3608.46	40.9597	3.86841	
3666.82	40.4342	3.76105	
3726.13	39.7661	3.65559	
3786.40	38.8555	3.55191	
3847.64	37.4303	3.45004	
3909.87	33.8781	3.35003	
3928.70	21.3670	3.32065	
3928.90	21.3687	10.8165	
3973.11	35.7824	10.6258	
4037.38	37.5436	10.3581	
4102.68	37.8216	10.0972	
4156.	31.1452	9.89191	
4156.20	31.1480	13.5880	
4169.03	37.0202	13.5233	
4236.46	39.7808	13.1917	
4304.98	40.9163	12.8690	
4374.62	41.5729	12.5550	
4445.37	41.5607	12.2471	
4464.60	39.1491	12.1656	
4464.80	39.1509	13.7097	
4517.27	42.6724	13.4942	
4590.33	43.6361	13.2039	
4664.58	44.3357	12.9168	
4740.03	44.9116	12.6326	
4816.69	45.4069	12.3519	
4894.60	45.8429	12.0747	
4973.77	46.2318	11.8010	
5054.21	46.5818	11.5311	
5135.96	46.8989	11.2652	
5219.03	47.1876	11.0033	
5303.44	47.4516	10.7455	
5389.22	47.6934	10.4916	
5476.39	47.9153	10.2420	
5564.97	48.1194	9.99683	
5654.98	48.3075	9.75571	
5746.44	48.4807	9.51892	
5839.39	48.6403	9.28642	
5933.83	48.7875	9.05831	
6029.81	48.9233	8.83453	
6127.33	49.0484	8.61505	
6226.44	49.1635	8.39981	
6327.15	49.2695	8.18894	
6429.48	49.3670	7.98243	
6533.48	49.4566	7.78004	
6639.15	49.5386	7.58182	
6746.54	49.6136	7.38798	
6855.65	49.6823	7.19822	
6966.54	49.7448	7.01252	
7079.22	49.8015	6.83093	
7193.72	49.8529	6.65333	
7310.07	49.8993	6.47986	
7428.31	49.9410	6.31012	
7548.45	49.9782	6.14438	
7670.54	50.0113	5.98237	
7794.61	50.0404	5.82412	
7920.68	50.0658	5.66971	
8048.79	50.0879	5.51872	
8178.98	50.1065	5.37147	
8311.26	50.1223	5.22782	
8445.69	50.1352	5.08748	
8582.29	50.1453	4.95070	
8721.11	50.1530	4.81718	
8862.16	50.1582	4.68692	
9005.50	50.1612	4.56000	
9151.16	50.1622	4.43604	
9299.17	50.1611	4.31531	
9449.58	50.1583	4.19766	
9602.42	50.1537	4.08290	
9757.73	50.1474	3.97106	
9915.55	50.1396	3.86235	
10075.9	50.1306	3.75621	
10238.9	50.1202	3.65281	
10404.5	50.1086	3.55209	
10572.8	50.0957	3.45399	
10743.8	50.0818	3.35846	
10917.6	50.0669	3.26544	
11094.2	50.0510	3.17486	
11273.6	50.0342	3.08668	
11455.9	50.0167	3.00085	
11641.2	49.9983	2.91730	
11829.5	49.9792	2.83598	
12020.8	49.9595	2.75684	
12215.3	49.9391	2.67984	
12412.8	49.9182	2.60491	
12613.6	49.8967	2.53201	
12817.6	49.8746	2.46109	
13025.0	49.8522	2.39210	
13235.6	49.8292	2.32499	
13449.7	49.8058	2.25973	
13667.2	49.7821	2.19625	
13888.3	49.7579	2.13452	
14112.9	49.7334	2.07449	
14341.2	49.7086	2.01612	
14573.1	49.6834	1.95937	
14808.9	49.6579	1.90420	
15048.4	49.6320	1.85056	
15291.8	49.6059	1.79842	
15539.1	49.5794	1.74774	
15790.4	49.5527	1.69848	
16045.8	49.5256	1.65060	
16305.4	49.4982	1.60406	
16569.1	49.4704	1.55884	
16837.1	49.4423	1.51489	
17109.4	49.4138	1.47218	
17386.1	49.3850	1.43069	
17667.4	49.3557	1.39037	
17953.1	49.3259	1.35119	
18243.5	49.2957	1.31313	
18538.6	49.2649	1.27616	
18838.4	49.2335	1.24024	
19143.1	49.2015	1.20535	
19452.7	49.1688	1.17145	
19767.4	49.1353	1.13853	
20087.1	49.1009	1.10655	
20412.0	49.0654	1.07549	
20742.1	49.0289	1.04532	
21077.6	48.9911	1.01602	
21418.5	48.9520	0.987571	
21765.0	48.9111	0.959938	
22117.0	48.8685	0.933104	
22474.7	48.8237	0.907047	
22838.2	48.7764	0.881743	
23207.6	48.7263	0.857173	
23583.0	48.6728	0.833315	
23964.4	48.6153	0.810150	
24352.0	48.5531	0.787658	
24745.9	48.4850	0.765820	
25146.2	48.4098	0.744618	
25552.9	48.3257	0.724034	
25966.2	48.2300	0.704050	
26386.1	48.1191	0.684648	
26812.9	47.9872	0.665814	
27246.6	47.8249	0.647529	
27687.3	47.6150	0.629780	
28135.1	47.3212	0.612549	
28590.2	46.8413	0.595823	
29052.6	45.5641	0.579586	
29200.0	38.6877	0.574557	
29200.2	38.6878	3.54851	
29522.5	46.4003	3.48783	
30000.0	47.3136	3.40099	
