E(eV)	f1	f2
10.0000	-9999.	3.13720	
10.1617	-9999.	3.25228	
10.3261	-9999.	3.37159	
10.4931	-9999.	3.49517	
10.6628	-9999.	3.62199	
10.8353	-9999.	3.75342	
11.0106	-9999.	3.88962	
11.1886	-9999.	4.03075	
11.3696	-9999.	4.17701	
11.5535	-9999.	4.32468	
11.7404	-9999.	4.46988	
11.9303	-9999.	4.61995	
12.1232	-9999.	4.77507	
12.3193	-9999.	4.93539	
12.5186	-9999.	5.10109	
12.7210	-9999.	5.24026	
12.9268	-9999.	5.37713	
13.1359	-9999.	5.51759	
13.3483	-9999.	5.66171	
13.5642	-9999.	5.80960	
13.7836	-9999.	5.96135	
14.0066	-9999.	6.07338	
14.2331	-9999.	6.15358	
14.4633	-9999.	6.23483	
14.6973	-9999.	6.31717	
14.9350	-9999.	6.40058	
15.1765	-9999.	6.48280	
15.4220	-9999.	6.55992	
15.6714	-9999.	6.63795	
15.9249	-9999.	6.71691	
16.1825	-9999.	6.79680	
16.4442	-9999.	6.86154	
16.7102	-9999.	6.84686	
16.9805	-9999.	6.83221	
17.2551	-9999.	6.81760	
17.5342	-9999.	6.80302	
17.8178	-9999.	6.73782	
18.1060	-9999.	6.66358	
18.3989	-9999.	6.59014	
18.6964	-9999.	6.51752	
18.9988	-9999.	6.44570	
19.3061	-9999.	6.37067	
19.6184	-9999.	6.29552	
19.9357	-9999.	6.22126	
20.2582	-9999.	6.14788	
20.5858	-9999.	6.07537	
20.9188	-9999.	6.00371	
21.2571	-9999.	5.93288	
21.6009	-9999.	5.86290	
21.9503	-9999.	5.79375	
22.3053	-9999.	5.72541	
22.6661	-9999.	5.64529	
23.0327	-9999.	5.54004	
23.4053	-9999.	5.43674	
23.7838	-9999.	5.33538	
24.1685	-9999.	5.23590	
24.5594	-9999.	5.15222	
24.9566	-9999.	5.07690	
25.3603	-9999.	5.00269	
25.7705	-9999.	4.92956	
26.1873	-9999.	4.85750	
26.6109	-9999.	4.78650	
27.0413	-9999.	4.71985	
27.4786	-9999.	4.67861	
27.9231	-9999.	4.63772	
28.3747	-9999.	4.59720	
28.8337	-9999.	4.55590	
29.3000	1.97824	4.50988	
29.7739	1.67726	4.46433	
30.2555	1.33733	4.55361	
30.7449	1.01580	4.65269	
31.2421	0.647242	4.75393	
31.7475	0.214456	5.02013	
32.2609	-0.119069	5.36774	
32.7827	-0.405135	5.73941	
33.3130	-0.659484	6.13681	
33.8518	-0.887586	6.56174	
34.3993	-1.09200	7.01697	
34.9557	-1.26731	7.51043	
35.5211	-1.40818	8.03858	
36.0956	-1.50978	8.60389	
36.6794	-1.56306	9.20893	
37.2727	-1.53669	9.85654	
37.8755	-1.36993	10.4630	
38.4882	-1.24061	11.0174	
39.1107	-1.09937	11.6011	
39.7432	-0.909361	12.2157	
40.3861	-0.635268	12.8629	
41.0393	-0.267859	13.4251	
41.7031	0.819637E-01	13.9630	
42.3776	0.463006	14.5224	
43.0630	0.911653	15.1042	
43.7595	1.50220	15.6787	
44.4673	2.11311	16.0596	
45.1865	2.70208	16.4497	
45.9174	3.33137	16.8493	
46.6600	4.09616	17.1763	
47.4147	4.79686	17.3444	
48.1816	5.46219	17.5141	
48.9609	6.13445	17.6855	
49.7528	6.85896	17.8585	
50.5576	7.72304	18.0333	
51.3753	8.62639	17.8674	
52.2062	9.37180	17.6491	
53.0506	10.0708	17.4336	
53.9087	10.8099	17.2206	
54.7806	11.5646	16.7637	
55.6667	12.1136	16.2323	
56.5670	12.5479	15.7179	
57.4820	12.9007	15.2197	
58.4117	13.1791	14.7373	
59.3564	13.4077	14.3109	
60.3165	13.6136	13.9004	
61.2921	13.7931	13.5017	
62.2834	13.9443	13.1144	
63.2908	14.0686	12.7383	
64.3145	14.1669	12.3729	
65.3547	14.2401	12.0180	
66.4118	14.2883	11.6733	
67.4859	14.3109	11.3385	
68.5775	14.3059	11.0133	
69.6867	14.2671	10.6973	
70.8138	14.1701	10.3937	
71.9591	14.0672	10.1993	
73.1230	13.9852	10.0086	
74.3057	13.9001	9.82835	
75.5076	13.8176	9.66050	
76.7289	13.7282	9.49552	
77.9699	13.6173	9.33334	
79.2310	13.4489	9.17394	
80.5125	13.2834	9.14489	
81.8147	13.1704	9.12327	
83.1380	13.0792	9.10170	
84.4827	12.9990	9.08018	
85.8491	12.9243	9.05872	
87.2377	12.8505	9.03731	
88.6487	12.7705	9.01881	
90.0825	12.6935	9.01381	
91.5395	12.6187	9.00882	
93.0201	12.5413	9.00383	
94.5246	12.4568	8.99884	
96.0535	12.3601	8.99386	
97.6071	12.2371	8.98888	
99.1858	12.0351	9.03862	
100.790	11.8965	9.16727	
102.420	11.8005	9.29776	
104.077	11.7206	9.43010	
105.760	11.6522	9.56433	
107.471	11.5920	9.70046	
109.209	11.5371	9.83853	
110.975	11.4834	9.97857	
112.770	11.4187	10.1206	
114.594	11.3497	10.3038	
116.448	11.3112	10.5067	
118.331	11.2928	10.7137	
120.245	11.2903	10.9247	
122.190	11.3038	11.1399	
124.166	11.3357	11.3594	
126.175	11.4011	11.5702	
128.215	11.4589	11.7520	
130.289	11.5128	11.9366	
132.397	11.5679	12.1242	
134.538	11.6267	12.3147	
136.714	11.6904	12.5081	
138.925	11.7612	12.7046	
141.172	11.8481	12.9023	
143.456	11.9327	13.0791	
145.776	12.0063	13.2584	
148.134	12.0765	13.4522	
150.530	12.1558	13.6543	
152.964	12.2419	13.8594	
155.439	12.3340	14.0677	
157.953	12.4322	14.2790	
160.507	12.5374	14.4936	
163.103	12.6532	14.7114	
165.742	12.7899	14.9132	
168.422	12.9049	15.0953	
171.146	12.9848	15.2970	
173.915	13.0711	15.5258	
176.727	13.1768	15.7888	
179.586	13.3044	16.0575	
182.491	13.4519	16.3307	
185.442	13.6176	16.6080	
188.442	13.8050	16.8898	
191.489	14.0305	17.1683	
194.587	14.2621	17.4096	
197.734	14.4986	17.6412	
200.932	14.7289	17.8649	
204.182	14.9616	18.0913	
207.485	15.2031	18.3208	
210.840	15.4670	18.5535	
214.251	15.7375	18.7488	
217.716	16.0041	18.9378	
221.237	16.2616	19.1222	
224.816	16.5170	19.3079	
228.452	16.7730	19.4957	
232.147	17.0316	19.6854	
235.902	17.2945	19.8774	
239.717	17.5627	20.0710	
243.595	17.8372	20.2662	
247.535	18.1188	20.4629	
251.538	18.4086	20.6618	
255.607	18.7089	20.8630	
259.741	19.0223	21.0663	
263.942	19.3521	21.2713	
268.211	19.7031	21.4780	
272.549	20.0898	21.6869	
276.957	20.5517	21.8418	
281.437	20.9902	21.9268	
285.989	21.3890	21.9666	
290.615	21.7581	22.0002	
295.315	22.1050	22.0338	
300.092	22.4393	22.0677	
304.945	22.7639	22.1017	
309.878	23.0806	22.1355	
314.890	23.3905	22.1694	
319.983	23.6948	22.2032	
325.158	23.9937	22.2369	
330.418	24.2880	22.2711	
335.762	24.5782	22.3053	
341.192	24.8642	22.3392	
346.711	25.1457	22.3733	
352.319	25.4227	22.4076	
358.017	25.6955	22.4424	
363.808	25.9630	22.4769	
369.692	26.2242	22.5112	
375.672	26.4759	22.5451	
381.748	26.7145	22.5802	
387.922	26.9332	22.6188	
394.197	27.0923	22.6646	
400.573	27.2409	22.8306	
407.052	27.4655	23.0463	
413.635	27.7411	23.2654	
420.326	28.0552	23.4852	
427.124	28.4045	23.7069	
434.032	28.7933	23.9315	
441.052	29.2281	24.1581	
448.186	29.7977	24.3604	
455.435	30.3773	24.4309	
462.802	30.9341	24.4070	
470.287	31.4285	24.3326	
477.894	31.8690	24.2592	
485.623	32.2864	24.1856	
493.478	32.6867	24.1118	
501.459	33.0730	24.0375	
509.570	33.4492	23.9639	
517.812	33.8243	23.8861	
526.187	34.1903	23.7917	
534.698	34.5275	23.6650	
543.346	34.7921	23.5229	
552.134	34.8901	23.3826	
561.065	34.9467	23.7024	
570.139	35.5102	24.1839	
579.361	36.2270	24.1955	
588.732	36.8945	24.0659	
598.254	37.4335	23.8475	
607.930	37.9034	23.6311	
617.763	38.3363	23.4165	
627.755	38.7489	23.2027	
637.908	39.1456	22.9781	
648.226	39.5222	22.7368	
658.711	39.8637	22.4858	
669.365	40.1695	22.2374	
680.191	40.4459	22.0257	
691.193	40.7325	21.8417	
702.372	41.0553	21.6614	
713.733	41.3883	21.4386	
725.277	41.6874	21.1880	
737.008	41.9626	20.9402	
748.928	42.2228	20.6951	
761.042	42.4721	20.4527	
773.351	42.7141	20.2104	
785.859	42.9476	19.9629	
798.570	43.1653	19.7119	
811.486	43.3700	19.4637	
824.611	43.5643	19.2185	
837.949	43.7513	18.9765	
851.502	43.9311	18.7330	
865.274	44.1027	18.4878	
879.269	44.2619	18.2416	
893.491	44.4111	17.9985	
907.943	44.5529	17.7586	
922.628	44.6941	17.5219	
937.551	44.8257	17.2695	
952.715	44.9436	17.0158	
968.124	45.0449	16.7615	
983.783	45.1335	16.5109	
999.695	45.2119	16.2627	
1015.86	45.2830	16.0170	
1032.29	45.3414	15.7633	
1048.99	45.3852	15.5100	
1065.96	45.4114	15.2568	
1083.20	45.4218	15.0076	
1100.72	45.4174	14.7623	
1118.52	45.3986	14.5209	
1136.61	45.3655	14.2833	
1155.	45.3179	14.0494	
1173.68	45.2555	13.8193	
1192.66	45.1779	13.5924	
1211.95	45.0845	13.3693	
1231.55	44.9767	13.1499	
1251.47	44.8529	12.9282	
1271.72	44.7095	12.7043	
1292.29	44.5375	12.4769	
1313.19	44.3361	12.2532	
1334.43	44.1049	12.0334	
1356.01	43.8418	11.8176	
1377.94	43.5436	11.6053	
1400.23	43.2061	11.3968	
1422.88	42.8246	11.1921	
1445.89	42.3922	10.9904	
1469.28	41.9004	10.7918	
1493.04	41.3389	10.5961	
1517.19	40.6902	10.3998	
1541.73	39.9330	10.2065	
1566.67	39.0388	10.0168	
1592.01	37.9653	9.83048	
1617.76	36.6451	9.64752	
1643.92	34.9623	9.46783	
1670.51	32.6905	9.29154	
1697.53	29.2697	9.11830	
1724.99	22.0968	8.94782	
1735.	4.24359	8.88710	
1735.20	4.15165	19.7275	
1752.89	19.0016	23.0041	
1781.24	20.1406	29.3353	
1810.05	26.4010	37.4091	
1839.32	33.8200	38.2464	
1869.07	38.0706	37.3684	
1899.30	41.0410	36.5105	
1930.02	43.3374	35.6714	
1961.24	45.1885	34.8515	
1992.96	46.7053	34.0503	
2025.20	47.9578	33.2750	
2057.95	48.9736	32.5099	
2091.24	49.7460	31.7623	
2125.06	50.2181	31.0313	
2159.43	50.1454	30.3178	
2193.90	41.8841	29.6298	
2194.10	41.8914	34.5927	
2194.36	43.9311	34.5862	
2229.85	52.0931	33.7286	
2265.92	53.9219	32.8926	
2302.57	55.1844	32.0767	
2339.81	56.1508	31.2817	
2377.66	56.8921	30.5072	
2416.11	57.3862	29.7511	
2455.19	57.2830	29.0142	
2468.60	54.4774	28.7682	
2468.80	54.4810	30.7128	
2494.90	58.3585	30.2252	
2535.26	59.5054	29.4962	
2576.26	60.2863	28.7842	
2617.93	60.8784	28.0897	
2660.27	61.2837	27.4133	
2703.30	60.9856	26.7526	
2707.90	59.8129	26.6835	
2708.10	59.8221	27.7560	
2747.03	62.2261	27.2313	
2791.46	62.9476	26.6532	
2836.61	63.5314	26.0836	
2882.49	64.0434	25.5214	
2929.11	64.5045	24.9680	
2976.48	64.9260	24.4237	
3024.63	65.3131	23.8872	
3073.55	65.6705	23.3605	
3123.26	66.0014	22.8422	
3173.78	66.3080	22.3330	
3225.11	66.5922	21.8327	
3277.27	66.8559	21.3416	
3330.28	67.1003	20.8592	
3384.15	67.3272	20.3867	
3438.88	67.5376	19.9224	
3494.50	67.7322	19.4673	
3551.02	67.9126	19.0213	
3608.46	68.0793	18.5836	
3666.82	68.2327	18.1547	
3726.13	68.3743	17.7348	
3786.40	68.5039	17.3227	
3847.64	68.6226	16.9200	
3909.87	68.7314	16.5253	
3973.11	68.8304	16.1388	
4037.38	68.9202	15.7604	
4102.68	69.0012	15.3901	
4169.03	69.0739	15.0276	
4236.46	69.1387	14.6729	
4304.98	69.1961	14.3258	
4374.62	69.2463	13.9862	
4445.37	69.2897	13.6539	
4517.27	69.3265	13.3289	
4590.33	69.3573	13.0113	
4664.58	69.3822	12.7004	
4740.03	69.4013	12.3965	
4816.69	69.4150	12.0994	
4894.60	69.4235	11.8088	
4973.77	69.4271	11.5248	
5054.21	69.4258	11.2471	
5135.96	69.4198	10.9758	
5219.03	69.4094	10.7105	
5303.44	69.3946	10.4515	
5389.22	69.3756	10.1981	
5476.39	69.3525	9.95074	
5564.97	69.3256	9.70905	
5654.98	69.2946	9.47265	
5746.44	69.2597	9.24197	
5839.39	69.2210	9.01663	
5933.83	69.1786	8.79649	
6029.81	69.1324	8.58146	
6127.33	69.0824	8.37138	
6226.44	69.0286	8.16637	
6327.15	68.9711	7.96623	
6429.48	68.9097	7.77072	
6533.48	68.8443	7.57977	
6639.15	68.7747	7.39339	
6746.54	68.7010	7.21144	
6855.65	68.6227	7.03362	
6966.54	68.5396	6.86032	
7079.22	68.4517	6.69110	
7193.72	68.3584	6.52574	
7310.07	68.2593	6.36455	
7428.31	68.1541	6.20713	
7548.45	68.0419	6.05341	
7670.54	67.9222	5.90358	
7794.61	67.7940	5.75720	
7920.68	67.6562	5.61435	
8048.79	67.5074	5.47501	
8178.98	67.3461	5.33911	
8311.26	67.1701	5.20646	
8445.69	66.9767	5.07705	
8582.29	66.7618	4.95039	
8721.11	66.5205	4.82720	
8862.16	66.2459	4.70686	
9005.50	65.9271	4.58942	
9151.16	65.5475	4.47489	
9299.17	65.0790	4.36318	
9449.58	64.4664	4.25404	
9602.42	63.5787	4.14765	
9757.73	61.9472	4.04384	
9881.	47.4734	3.96442	
9881.20	47.4747	10.4207	
9915.55	59.4412	10.3542	
10075.9	63.0151	10.0527	
10238.9	64.1843	9.75991	
10404.5	64.8094	9.47567	
10572.8	65.1371	9.19970	
10743.8	65.2157	8.93178	
10917.6	64.9575	8.67165	
11094.2	63.4845	8.41911	
11136.0	57.0506	8.36092	
11136.2	57.0520	11.7588	
11273.6	65.0180	11.4902	
11455.9	65.9758	11.1481	
11641.2	65.9661	10.8162	
11681.4	63.5302	10.7462	
11681.6	63.5307	12.0831	
11829.5	67.0386	11.8723	
12020.8	67.8327	11.6088	
12215.3	68.4049	11.3488	
12412.8	68.8701	11.0923	
12613.6	69.2660	10.8395	
12817.6	69.6112	10.5905	
13025.0	69.9168	10.3453	
13235.6	70.1900	10.1039	
13449.7	70.4360	9.86656	
13667.2	70.6588	9.63316	
13888.3	70.8612	9.40379	
14112.9	71.0457	9.17846	
14341.2	71.2142	8.95720	
14573.1	71.3683	8.74000	
14808.9	71.5094	8.52689	
15048.4	71.6387	8.31784	
15291.8	71.7572	8.11286	
15539.1	71.8657	7.91194	
15790.4	71.9652	7.71503	
16045.8	72.0562	7.52215	
16305.4	72.1393	7.33323	
16569.1	72.2153	7.14827	
16837.1	72.2845	6.96723	
17109.4	72.3474	6.79006	
17386.1	72.4045	6.61673	
17667.4	72.4562	6.44719	
17953.1	72.5027	6.28140	
18243.5	72.5446	6.11931	
18538.6	72.5819	5.96088	
18838.4	72.6151	5.80605	
19143.1	72.6444	5.65477	
19452.7	72.6701	5.50699	
19767.4	72.6923	5.36265	
20087.1	72.7113	5.22170	
20412.0	72.7273	5.08408	
20742.1	72.7405	4.94974	
21077.6	72.7510	4.81861	
21418.5	72.7590	4.69065	
21765.0	72.7647	4.56580	
22117.0	72.7683	4.44399	
22474.7	72.7698	4.32517	
22838.2	72.7693	4.20929	
23207.6	72.7671	4.09628	
23583.0	72.7632	3.98608	
23964.4	72.7577	3.87865	
24352.0	72.7507	3.77392	
24745.9	72.7424	3.67185	
25146.2	72.7327	3.57236	
25552.9	72.7219	3.47541	
25966.2	72.7099	3.38095	
26386.1	72.6968	3.28891	
26812.9	72.6828	3.19925	
27246.6	72.6678	3.11191	
27687.3	72.6520	3.02684	
28135.1	72.6354	2.94399	
28590.2	72.6182	2.86331	
29052.6	72.6007	2.78475	
29522.5	72.5898	2.70825	
30000.0	72.5392	2.63378	
