E(eV)	f1	f2
10.0000	-9999.	3.14769	
10.1617	-9999.	3.10070	
10.3261	-9999.	3.05442	
10.4931	-9999.	3.00883	
10.6628	-9999.	2.96392	
10.8353	-9999.	2.91968	
11.0106	-9999.	2.87611	
11.1886	-9999.	2.83318	
11.3696	-9999.	2.79089	
11.5535	-9999.	2.74024	
11.7404	-9999.	2.66201	
11.9303	-9999.	2.58600	
12.1232	-9999.	2.51217	
12.3193	-9999.	2.44044	
12.5186	-9999.	2.37457	
12.7210	-9999.	2.32610	
12.9268	-9999.	2.27863	
13.1359	-9999.	2.23212	
13.3483	-9999.	2.18656	
13.5642	-9999.	2.13358	
13.7836	-9999.	2.08142	
14.0066	-9999.	2.03053	
14.2331	-9999.	1.97588	
14.4633	-9999.	1.91003	
14.6973	-9999.	1.84637	
14.9350	-9999.	1.78484	
15.1765	-9999.	1.74404	
15.4220	-9999.	1.70965	
15.6714	-9999.	1.67593	
15.9249	-9999.	1.68899	
16.1825	-9999.	1.70819	
16.4442	-9999.	1.72797	
16.7102	-9999.	1.78318	
16.9805	-9999.	1.84220	
17.2551	-9999.	1.92527	
17.5342	-9999.	2.02413	
17.8178	-9999.	2.14532	
18.1060	-9999.	2.27377	
18.3989	-9999.	2.56475	
18.6964	-9999.	3.05030	
18.9988	-9999.	3.71448	
19.3061	-9999.	4.55803	
19.6184	-9999.	5.59314	
19.9357	-9999.	6.60440	
20.2582	-9999.	7.28920	
20.5858	-9999.	8.02534	
20.9188	-9999.	8.41645	
21.2571	-9999.	8.82663	
21.6009	-9999.	9.25680	
21.9503	-9999.	9.70794	
22.3053	-9999.	10.0376	
22.6661	-9999.	10.2934	
23.0327	-9999.	10.5556	
23.4053	-9999.	10.8246	
23.7838	-9999.	11.1004	
24.1685	-9999.	11.3250	
24.5594	-9999.	11.5480	
24.9566	-9999.	11.7754	
25.3603	-9999.	12.0073	
25.7705	-9999.	12.2437	
26.1873	-9999.	12.3447	
26.6109	-9999.	12.4022	
27.0413	-9999.	12.4599	
27.4786	-9999.	12.5179	
27.9231	-9999.	12.5762	
28.3747	-9999.	12.6348	
28.8337	-9999.	12.6732	
29.3000	13.2132	12.6709	
29.7739	13.5854	12.6685	
30.2555	13.9532	12.6662	
30.7449	14.3235	12.6638	
31.2421	14.7028	12.6615	
31.7475	15.0997	12.6591	
32.2609	15.5313	12.6568	
32.7827	16.0567	12.6544	
33.3130	16.6210	12.3973	
33.8518	17.0372	12.1030	
34.3993	17.3790	11.8156	
34.9557	17.6808	11.5351	
35.5211	17.9530	11.2613	
36.0956	18.2054	10.9939	
36.6794	18.4508	10.7329	
37.2727	18.6772	10.4363	
37.8755	18.8660	10.1440	
38.4882	19.0317	9.85986	
39.1107	19.1812	9.58372	
39.7432	19.3251	9.31531	
40.3861	19.4837	9.04597	
41.0393	19.6081	8.71266	
41.7031	19.6836	8.39163	
42.3776	19.7294	8.08243	
43.0630	19.7518	7.78462	
43.7595	19.7543	7.49779	
44.4673	19.7388	7.22152	
45.1865	19.7068	6.95544	
45.9174	19.6589	6.69915	
46.6600	19.5931	6.45232	
47.4147	19.5152	6.22680	
48.1816	19.4311	6.00983	
48.9609	19.3386	5.80043	
49.7528	19.2363	5.59831	
50.5576	19.1238	5.40325	
51.3753	19.0007	5.21498	
52.2062	18.8664	5.03327	
53.0506	18.7199	4.85789	
53.9087	18.5596	4.68862	
54.7806	18.3794	4.52525	
55.6667	18.1609	4.38531	
56.5670	17.9588	4.29022	
57.4820	17.7684	4.19718	
58.4117	17.5773	4.10616	
59.3564	17.3820	4.01712	
60.3165	17.1802	3.93000	
61.2921	16.9699	3.84478	
62.2834	16.7496	3.76141	
63.2908	16.5175	3.67984	
64.3145	16.2718	3.60004	
65.3547	16.0104	3.52197	
66.4118	15.7297	3.44698	
67.4859	15.4324	3.37842	
68.5775	15.1162	3.31123	
69.6867	14.7776	3.24537	
70.8138	14.4129	3.18083	
71.9591	14.0181	3.11756	
73.1230	13.5888	3.05556	
74.3057	13.1193	2.99479	
75.5076	12.6029	2.93506	
76.7289	12.0304	2.87620	
77.9699	11.3902	2.81851	
79.2310	10.6650	2.76199	
80.5125	9.83938	2.71774	
81.8147	8.90003	2.67394	
83.1380	7.75320	2.59535	
84.4827	6.34578	2.59967	
85.8491	4.49988	2.64646	
87.2377	1.73152	3.05615	
88.6487	-1.71762	5.14780	
90.0825	-4.45996	9.81732	
91.5395	-1.34486	18.7222	
93.0201	7.03967	11.9522	
94.5246	2.65975	4.89822	
96.0535	-4.99629	4.83257	
97.6071	-13.7597	7.70272	
99.1858	-22.8361	14.7427	
100.790	-31.0722	28.2176	
102.420	-29.8439	54.0075	
104.077	-10.0772	67.7876	
105.760	6.22173	71.2667	
107.471	22.1569	70.8206	
109.209	36.0201	61.6804	
110.975	42.3187	51.0300	
112.770	43.1115	42.2184	
114.594	42.5829	37.7589	
116.448	42.6353	34.1549	
118.331	42.2321	31.2204	
120.245	42.2281	29.1424	
122.190	42.3772	27.2027	
124.166	42.5633	25.3922	
126.175	42.8301	23.6692	
128.215	42.9109	21.7419	
130.289	42.7596	19.9716	
132.397	42.4052	18.3454	
134.538	41.7283	16.9753	
136.714	41.2559	16.1644	
138.925	40.9691	15.3923	
141.172	40.8214	14.6570	
143.456	40.7473	13.8323	
145.776	40.5986	12.9870	
148.134	40.4210	12.1934	
150.530	40.2409	11.4483	
152.964	40.0864	10.7487	
155.439	40.1246	9.98505	
157.953	39.9420	8.99408	
160.507	39.5664	8.10146	
163.103	39.1087	7.29740	
165.742	38.5928	6.59466	
168.422	38.0564	5.97352	
171.146	37.4922	5.41091	
173.915	36.8414	4.92550	
176.727	36.2629	4.66099	
179.586	35.7623	4.41068	
182.491	35.3072	4.17382	
185.442	34.8743	3.94968	
188.442	34.4544	3.73757	
191.489	34.0365	3.53685	
194.587	33.6150	3.36901	
197.734	33.2107	3.22282	
200.932	32.8109	3.08297	
204.182	32.3793	2.94919	
207.485	31.9570	2.92693	
210.840	31.5873	2.92049	
214.251	31.2551	2.91406	
217.716	30.9408	2.90764	
221.237	30.6385	2.90124	
224.816	30.3429	2.89485	
228.452	30.0408	2.88848	
232.147	29.7384	2.91151	
235.902	29.4589	2.94828	
239.717	29.1935	2.98552	
243.595	28.9381	3.02323	
247.535	28.6897	3.05696	
251.538	28.4398	3.08723	
255.607	28.1868	3.11780	
259.741	27.9271	3.14868	
263.942	27.6464	3.18699	
268.211	27.3759	3.25991	
272.549	27.1158	3.33450	
276.957	26.8607	3.41079	
281.437	26.6073	3.48884	
285.989	26.3551	3.56866	
290.615	26.1079	3.65032	
295.315	25.8595	3.71100	
300.092	25.5901	3.76393	
304.945	25.2976	3.81761	
309.878	24.9806	3.87206	
314.890	24.6145	3.94683	
319.983	24.2490	4.05944	
325.158	23.8804	4.17526	
330.418	23.4858	4.29439	
335.762	23.0628	4.44011	
341.192	22.6186	4.59923	
346.711	22.1357	4.76406	
352.319	21.5504	4.95455	
358.017	20.9646	5.29574	
363.808	20.3843	5.66044	
369.692	19.6738	6.09833	
375.672	19.0320	6.74145	
381.748	18.4807	7.45237	
387.922	17.9892	8.23830	
394.197	17.5964	9.10709	
400.573	17.3692	9.96364	
407.052	17.1081	10.7223	
413.635	16.8322	11.5388	
420.326	16.5744	12.4174	
427.124	16.3567	13.3629	
434.032	16.1948	14.3804	
441.052	16.1167	15.4754	
448.186	16.2427	16.5978	
455.435	16.4046	17.6458	
462.802	16.6183	18.7601	
470.287	17.0773	19.8822	
477.894	17.5251	20.7810	
485.623	17.9774	21.7204	
493.478	18.5592	22.7023	
501.459	19.3878	23.5348	
509.570	20.0710	24.0582	
517.812	20.6459	24.5933	
526.187	21.1832	25.1402	
534.698	21.7102	25.6993	
543.346	22.2516	26.2709	
552.134	22.8431	26.8239	
561.065	23.4059	27.3139	
570.139	23.9502	27.8128	
579.361	24.4958	28.3208	
588.732	25.0527	28.8381	
598.254	25.6596	29.3648	
607.930	26.2715	29.8296	
617.763	26.8710	30.3007	
627.755	27.4802	30.7792	
637.908	28.1085	31.2652	
648.226	28.7699	31.7589	
658.711	29.4665	32.2344	
669.365	30.1872	32.7043	
680.191	30.9428	33.1810	
691.193	31.7564	33.6648	
702.372	32.7088	34.1555	
713.733	33.8649	34.4772	
725.277	34.8705	34.4907	
737.008	35.7512	34.5040	
748.928	36.5921	34.5174	
761.042	37.4042	34.4960	
773.351	38.1663	34.4502	
785.859	38.8935	34.4044	
798.570	39.6382	34.3587	
811.486	40.3504	34.2252	
824.611	40.9857	34.0729	
837.949	41.5646	33.9212	
851.502	42.0879	33.7703	
865.274	42.5219	33.6200	
879.269	42.9075	33.5996	
893.491	43.3207	33.6267	
907.943	43.6903	33.6537	
922.628	44.0661	33.8284	
937.551	44.5481	34.0634	
952.715	45.1061	34.2999	
968.124	45.7302	34.5381	
983.783	46.3943	34.7779	
999.695	47.6408	34.7525	
1015.86	47.5038	33.6774	
1032.29	47.8184	35.3195	
1048.99	49.4540	36.0186	
1065.96	50.8204	35.5931	
1083.20	51.8150	35.1715	
1100.72	52.6619	34.7547	
1118.52	53.4175	34.3426	
1136.61	54.1068	33.9345	
1155.	54.7436	33.5309	
1173.68	55.3358	33.1315	
1192.66	55.8882	32.7364	
1211.95	56.4025	32.3454	
1231.55	56.8707	31.9585	
1251.47	57.2976	31.6084	
1271.72	57.6977	31.2971	
1292.29	58.1176	31.0316	
1313.19	58.5515	30.7677	
1334.43	58.9899	30.5058	
1356.01	59.4313	30.2458	
1377.94	59.8758	29.9868	
1400.23	60.3254	29.7295	
1422.88	60.7846	29.4739	
1445.89	61.2629	29.2194	
1469.28	61.7807	28.9429	
1493.04	62.3435	28.6327	
1517.19	62.8643	28.1765	
1541.73	63.3105	27.7065	
1566.67	63.6986	27.2432	
1592.01	64.0524	26.7866	
1617.76	64.3778	26.3374	
1643.92	64.6798	25.8955	
1670.51	64.9616	25.4601	
1697.53	65.2253	25.0313	
1724.99	65.4802	24.6088	
1752.89	65.7182	24.1779	
1781.24	65.9339	23.7489	
1810.05	66.1286	23.3227	
1839.32	66.3028	22.9037	
1869.07	66.4601	22.4920	
1899.30	66.6021	22.0876	
1930.02	66.7292	21.6894	
1961.24	66.8418	21.2978	
1992.96	66.9369	20.9127	
2025.20	67.0323	20.5447	
2057.95	67.1165	20.1620	
2091.24	67.1790	19.7838	
2125.06	67.2258	19.4107	
2159.43	67.2563	19.0412	
2194.36	67.2708	18.6771	
2229.85	67.2692	18.3171	
2265.92	67.2508	17.9617	
2302.57	67.2141	17.6104	
2339.81	67.1599	17.2651	
2377.66	67.0871	16.9233	
2416.11	66.9937	16.5860	
2455.19	66.8793	16.2539	
2494.90	66.7421	15.9259	
2535.26	66.5800	15.6026	
2576.26	66.3913	15.2842	
2617.93	66.1728	14.9701	
2660.27	65.9225	14.6617	
2703.30	65.6358	14.3563	
2747.03	65.3071	14.0557	
2791.46	64.9308	13.7599	
2836.61	64.4989	13.4686	
2882.49	64.0006	13.1814	
2929.11	63.4220	12.8988	
2976.48	62.7432	12.6205	
3024.63	61.9359	12.3466	
3073.55	60.9568	12.0768	
3123.26	59.7346	11.8112	
3173.78	58.1396	11.5498	
3225.11	55.8904	11.2926	
3277.27	52.1296	11.0393	
3330.28	33.8696	10.7902	
3331.90	19.1619	10.7828	
3332.10	19.1655	27.0414	
3384.15	50.8010	26.3508	
3438.88	52.7535	25.6546	
3490.70	34.0551	25.0221	
3490.90	34.0729	35.8594	
3494.50	46.1550	35.8020	
3551.02	57.4700	34.9213	
3608.46	61.1429	34.0640	
3666.82	63.5805	33.2280	
3726.13	65.3867	32.4142	
3786.40	66.7683	31.6218	
3847.64	67.8055	30.8503	
3909.87	68.4935	30.0973	
3973.11	68.6647	29.3631	
4037.38	66.5315	28.6489	
4046.	59.9057	28.5553	
4046.20	59.9150	33.3085	
4102.68	70.2408	32.6206	
4169.03	72.2070	31.8418	
4236.46	73.5601	31.0826	
4304.98	74.6318	30.3421	
4374.62	75.5223	29.6196	
4445.37	76.2758	28.9150	
4517.27	76.9155	28.2282	
4590.33	77.4462	27.5554	
4664.58	77.8581	26.9018	
4740.03	78.0976	26.2621	
4816.69	77.6797	25.6400	
4830.30	75.4531	25.5321	
4830.50	75.4541	27.0007	
4894.60	78.8115	26.5061	
4973.77	79.5383	25.9163	
5054.21	80.0164	25.3407	
5135.96	80.3499	24.7778	
5182.20	78.8630	24.4688	
5182.40	78.8692	25.4871	
5219.03	80.6756	25.2322	
5303.44	81.5016	24.6609	
5389.22	82.0768	24.0997	
5476.39	82.5565	23.5485	
5564.97	82.9764	23.0072	
5654.98	83.3516	22.4760	
5746.44	83.6906	21.9544	
5839.39	83.9987	21.4430	
5933.83	84.2798	20.9411	
6029.81	84.5370	20.4495	
6127.33	84.7726	19.9672	
6226.44	84.9883	19.4945	
6327.15	85.1857	19.0315	
6429.48	85.3664	18.5782	
6533.48	85.5315	18.1340	
6639.15	85.6821	17.6993	
6746.54	85.8192	17.2739	
6855.65	85.9436	16.8576	
6966.54	86.0564	16.4502	
7079.22	86.1579	16.0514	
7193.72	86.2489	15.6617	
7310.07	86.3302	15.2804	
7428.31	86.4019	14.9078	
7548.45	86.4650	14.5435	
7670.54	86.5199	14.1876	
7794.61	86.5670	13.8394	
7920.68	86.6066	13.4997	
8048.79	86.6394	13.1674	
8178.98	86.6654	12.8430	
8311.26	86.6852	12.5259	
8445.69	86.6988	12.2164	
8582.29	86.7068	11.9144	
8721.11	86.7095	11.6192	
8862.16	86.7070	11.3314	
9005.50	86.6999	11.0503	
9151.16	86.6881	10.7757	
9299.17	86.6719	10.5081	
9449.58	86.6517	10.2468	
9602.42	86.6278	9.99178	
9757.73	86.6006	9.74298	
9915.55	86.5739	9.50008	
10075.9	86.5438	9.25400	
10238.9	86.5022	9.01400	
10404.5	86.4557	8.77994	
10572.8	86.4039	8.55174	
10743.8	86.3470	8.32931	
10917.6	86.2853	8.11255	
11094.2	86.2187	7.90135	
11273.6	86.1472	7.69561	
11455.9	86.0707	7.49525	
11641.2	85.9893	7.30014	
11829.5	85.9026	7.11019	
12020.8	85.8105	6.92530	
12215.3	85.7126	6.74537	
12412.8	85.6085	6.57029	
12613.6	85.4978	6.39997	
12817.6	85.3797	6.23430	
13025.0	85.2535	6.07318	
13235.6	85.1183	5.91652	
13449.7	84.9726	5.76421	
13667.2	84.8148	5.61616	
13888.3	84.6428	5.47228	
14112.9	84.4537	5.33246	
14341.2	84.2436	5.19661	
14573.1	84.0068	5.06464	
14808.9	83.7351	4.93646	
15048.4	83.4155	4.81198	
15291.8	83.0264	4.69110	
15539.1	82.5264	4.57375	
15790.4	81.8214	4.45982	
16045.8	80.6049	4.34925	
16300.2	66.5374	4.24352	
16300.4	66.5378	9.91722	
16305.4	73.6404	9.91196	
16569.1	80.8937	9.63817	
16837.1	82.1404	9.37194	
17109.4	82.8362	9.11308	
17386.1	83.2870	8.86137	
17667.4	83.5886	8.61661	
17953.1	83.7804	8.37862	
18243.5	83.8778	8.14721	
18538.6	83.8804	7.92220	
18838.4	83.7682	7.70341	
19143.1	83.4795	7.49066	
19452.7	82.7837	7.28380	
19693.1	75.5630	7.12931	
19693.3	75.5636	10.1128	
19767.4	81.6750	10.0579	
20087.1	82.9986	9.82623	
20412.0	83.3209	9.59991	
20472.0	83.7022	9.55906	
20472.2	83.7052	10.9926	
20742.1	84.6589	10.7767	
21077.6	85.3344	10.5181	
21418.5	85.8354	10.2645	
21765.0	86.2400	10.0160	
22117.0	86.5802	9.77259	
22474.7	86.8731	9.53414	
22838.2	87.1293	9.30062	
23207.6	87.3559	9.07200	
23583.0	87.5577	8.84821	
23964.4	87.7385	8.62923	
24352.0	87.9013	8.41496	
24745.9	88.0482	8.20538	
25146.2	88.1811	8.00040	
25552.9	88.3015	7.79997	
25966.2	88.4108	7.60402	
26386.1	88.5099	7.41248	
26812.9	88.5999	7.22529	
27246.6	88.6815	7.04237	
27687.3	88.7555	6.86366	
28135.1	88.8225	6.68909	
28590.2	88.8831	6.51858	
29052.6	88.9377	6.35207	
29522.5	88.9868	6.18948	
30000.0	89.0309	6.03074	
