E(eV)	f1	f2
10.0000	-9999.	1.51668	
10.1428	-9999.	1.54246	
10.3068	-9999.	1.57217	
10.4735	-9999.	1.60245	
10.6429	-9999.	1.63331	
10.8151	-9999.	1.66477	
10.9900	-9999.	1.70636	
11.1677	-9999.	1.75257	
11.3484	-9999.	1.80003	
11.5319	-9999.	1.84878	
11.7184	-9999.	1.89885	
11.9080	-9999.	1.95027	
12.1006	-9999.	2.00309	
12.2963	-9999.	2.05733	
12.4952	-9999.	2.11278	
12.6973	-9999.	2.16186	
12.9026	-9999.	2.21207	
13.1113	-9999.	2.26345	
13.3234	-9999.	2.31602	
13.5389	-9999.	2.36981	
13.7579	-9999.	2.42485	
13.9804	-9999.	2.46758	
14.2065	-9999.	2.47959	
14.4363	-9999.	2.49166	
14.6698	-9999.	2.50379	
14.9071	-9999.	2.51598	
15.1482	-9999.	2.52823	
15.3932	-9999.	2.54054	
15.6422	-9999.	2.55291	
15.8952	-9999.	2.56534	
16.1523	-9999.	2.57783	
16.4135	-9999.	2.59038	
16.6790	-9999.	2.60299	
16.9487	-9999.	2.59544	
17.2229	-9999.	2.58059	
17.5014	-9999.	2.56582	
17.7845	-9999.	2.55113	
18.0722	-9999.	2.53653	
18.3645	-9999.	2.52201	
18.6615	-9999.	2.50758	
18.9633	-9999.	2.45238	
19.2701	3.13334	2.39274	
19.5817	3.16030	2.33455	
19.8985	3.17754	2.27777	
20.2203	3.19999	2.22238	
20.5473	3.21535	2.13794	
20.8797	3.21428	2.04611	
21.2174	3.18130	1.95823	
21.5606	3.12196	1.87411	
21.9093	3.04848	1.79362	
22.2637	2.96542	1.74355	
22.6237	2.87785	1.72343	
22.9897	2.80351	1.70354	
23.3615	2.73150	1.68389	
23.7394	2.65865	1.66446	
24.1233	2.58363	1.64526	
24.5135	2.50574	1.62628	
24.9100	2.42370	1.60751	
25.3129	2.33752	1.58710	
25.7223	2.24465	1.56026	
26.1383	2.13967	1.53387	
26.5611	2.02387	1.50793	
26.9907	1.89655	1.48243	
27.4273	1.75560	1.45736	
27.8709	1.59958	1.43271	
28.3217	1.42675	1.40900	
28.7797	1.23438	1.38833	
29.2452	1.01964	1.36796	
29.7183	0.776870	1.34790	
30.1989	0.498063	1.32812	
30.6874	0.170830	1.30864	
31.1837	-0.227176	1.28944	
31.6881	-0.749109	1.27053	
32.0289	-1.29137	1.25807	
32.4566	-2.00326	1.74955	
32.8900	-2.44702	2.39063	
33.3175	-2.62289	3.11958	
33.8564	-2.53127	3.58041	
34.4040	-2.44870	3.98257	
34.9604	-2.78137	4.15024	
35.5259	-3.26598	4.37954	
36.1005	-3.77984	4.98216	
36.6844	-4.23879	5.66771	
37.2777	-4.71674	6.45804	
37.8807	-5.10633	7.60504	
38.4934	-5.31214	8.94882	
39.1160	-5.21145	10.1261	
39.7486	-5.08363	11.4582	
40.3915	-4.78742	12.9593	
41.0448	-3.58289	14.6466	
41.7087	-2.09192	15.5206	
42.3833	-0.752391	16.0970	
43.0688	0.146311	16.6949	
43.7654	1.31706	17.3150	
44.4733	2.52777	17.6464	
45.1926	3.66719	17.9318	
45.9236	4.81243	18.2218	
46.6664	6.12984	18.5165	
47.4211	7.49442	18.4909	
48.1881	8.81349	18.4654	
48.9675	10.3751	18.4399	
49.7596	12.0345	17.8046	
50.5644	13.5884	16.7626	
51.3822	14.8286	15.7816	
52.2133	15.7053	14.4915	
53.0578	16.3493	13.0599	
53.9160	16.7801	11.7698	
54.7880	16.9514	10.4382	
55.6742	17.0390	9.25736	
56.5746	16.9905	8.21006	
57.4897	16.7282	6.92755	
58.4195	16.0620	5.84541	
59.3644	15.5128	5.40826	
60.3246	15.0276	5.08121	
61.3003	14.6303	4.77394	
62.2918	14.3962	4.46928	
63.2993	14.0865	4.07607	
64.3231	13.7613	3.71746	
65.3635	13.4364	3.50393	
66.4207	13.1153	3.32084	
67.4950	12.7939	3.14733	
68.5867	12.4933	3.06314	
69.6960	12.2386	2.99445	
70.8233	12.0378	2.92729	
71.9688	11.8356	2.86163	
73.1328	11.6426	2.79745	
74.3157	11.4512	2.77929	
75.5177	11.2844	2.77917	
76.7391	11.1426	2.77906	
77.9803	11.0144	2.77894	
79.2416	10.8918	2.77882	
80.5233	10.7751	2.78337	
81.8257	10.6692	2.81617	
83.1491	10.5763	2.84935	
84.4940	10.5026	2.88293	
85.8606	10.4412	2.91690	
87.2493	10.3902	2.95127	
88.6605	10.3504	2.98605	
90.0945	10.3264	3.02124	
91.5517	10.3034	3.03534	
93.0325	10.2827	3.04885	
94.5372	10.2636	3.06243	
96.0663	10.2443	3.07607	
97.6201	10.2275	3.08977	
99.1990	10.2132	3.10353	
100.803	10.2013	3.11735	
102.434	10.1920	3.13123	
104.091	10.1859	3.14517	
105.774	10.1817	3.15695	
107.485	10.1785	3.16846	
109.224	10.1756	3.18001	
110.990	10.1741	3.19160	
112.785	10.1736	3.20323	
114.610	10.1740	3.21491	
116.463	10.1749	3.22663	
118.347	10.1759	3.23839	
120.261	10.1759	3.25019	
122.206	10.1694	3.26204	
124.183	10.1681	3.29060	
126.191	10.1737	3.32020	
128.232	10.1842	3.35007	
130.307	10.1999	3.38020	
132.414	10.2206	3.41061	
134.556	10.2464	3.44129	
136.732	10.2789	3.47225	
138.944	10.3240	3.49262	
141.191	10.3612	3.50281	
143.475	10.3955	3.51303	
145.795	10.4290	3.52327	
148.153	10.4627	3.53356	
150.550	10.4970	3.54387	
152.985	10.5324	3.55421	
155.459	10.5690	3.56458	
157.973	10.6089	3.57498	
160.529	10.6563	3.58541	
163.125	10.7061	3.59587	
165.763	10.7567	3.58665	
168.444	10.8044	3.57260	
171.169	10.8451	3.55860	
173.937	10.8827	3.54465	
176.751	10.9183	3.53076	
179.609	10.9511	3.51693	
182.515	10.9819	3.50386	
185.467	11.0126	3.49418	
188.466	11.0446	3.48453	
191.515	11.0808	3.47491	
194.612	11.1194	3.46532	
197.760	11.1603	3.45575	
200.959	11.2082	3.42941	
204.209	11.2461	3.39522	
207.512	11.2771	3.36137	
210.868	11.3042	3.32785	
214.279	11.3296	3.29468	
217.745	11.3549	3.26183	
221.266	11.3769	3.21578	
224.845	11.3931	3.17017	
228.482	11.3992	3.12520	
232.177	11.3961	3.08087	
235.933	11.3882	3.03718	
239.749	11.3777	3.00642	
243.626	11.3673	2.97771	
247.567	11.3577	2.94927	
251.571	11.3478	2.92110	
255.640	11.3381	2.89320	
259.775	11.3286	2.86043	
263.977	11.3123	2.82426	
268.246	11.2916	2.78854	
272.585	11.2666	2.75327	
276.994	11.2371	2.71845	
281.474	11.2034	2.68321	
286.026	11.1651	2.64829	
290.653	11.1219	2.61382	
295.354	11.0736	2.57980	
300.131	11.0202	2.54623	
304.985	10.9613	2.51308	
309.918	10.8970	2.48015	
314.931	10.8259	2.44688	
320.025	10.7475	2.41405	
325.201	10.6614	2.38166	
330.461	10.5671	2.34971	
335.805	10.4638	2.31819	
341.237	10.3510	2.28709	
346.756	10.2284	2.25641	
352.365	10.0975	2.22613	
358.064	9.94867	2.18373	
363.855	9.77937	2.13716	
369.740	9.58573	2.09159	
375.720	9.36153	2.04699	
381.797	9.10532	2.00334	
387.973	8.80539	1.96429	
394.248	8.47157	1.93874	
400.625	8.09059	1.91089	
407.104	7.64272	1.88244	
413.689	7.10525	1.85443	
420.380	6.44314	1.82682	
427.179	5.59477	1.79962	
434.089	4.43993	1.77282	
441.110	2.69019	1.74643	
448.244	-0.736873	1.72044	
453.700	-18.2714	1.70110	
453.900	-18.2500	15.6413	
455.494	-5.60849	15.5779	
462.861	2.11285	15.2909	
470.348	4.97994	15.0092	
477.955	6.80646	14.7327	
485.686	8.15251	14.4612	
493.541	9.21552	14.1947	
501.524	10.0886	13.9333	
509.636	10.8223	13.6767	
517.879	11.4461	13.4246	
526.255	11.9770	13.1769	
534.767	12.4251	12.9342	
543.416	12.8242	12.6961	
552.206	12.8911	12.4623	
561.137	12.8719	12.6322	
570.213	13.0216	12.9946	
579.436	13.7220	13.3675	
588.808	14.6717	13.3523	
598.331	15.3636	13.0965	
608.009	15.8267	12.8455	
617.843	16.2526	12.5994	
627.836	16.6409	12.3573	
637.990	17.0025	12.1119	
648.309	17.3345	11.8601	
658.795	17.6343	11.6063	
669.451	17.8817	11.3574	
680.279	18.1022	11.1390	
691.282	18.3224	10.9433	
702.463	18.5692	10.7540	
713.824	18.8143	10.5420	
725.370	19.0335	10.3170	
737.102	19.2240	10.0969	
749.024	19.4031	9.88138	
761.139	19.5708	9.67034	
773.450	19.7301	9.46305	
785.960	19.8803	9.25750	
798.672	20.0195	9.05428	
811.590	20.1482	8.85554	
824.717	20.2691	8.66112	
838.056	20.3828	8.47097	
851.611	20.4903	8.28427	
865.385	20.5915	8.10092	
879.382	20.6863	7.92099	
893.605	20.7751	7.74498	
908.058	20.8592	7.57290	
922.746	20.9403	7.40469	
937.670	21.0175	7.23510	
952.836	21.0881	7.06818	
968.248	21.1528	6.90407	
983.908	21.2116	6.74378	
999.822	21.2660	6.58736	
1015.99	21.3160	6.43471	
1032.43	21.3645	6.28680	
1049.13	21.4113	6.14009	
1066.09	21.4537	5.99450	
1083.34	21.4905	5.85239	
1100.86	21.5243	5.71366	
1118.66	21.5553	5.57824	
1136.76	21.5835	5.44597	
1155.14	21.6091	5.31687	
1173.83	21.6326	5.19086	
1192.81	21.6540	5.06778	
1212.11	21.6736	4.94763	
1231.71	21.6918	4.83034	
1251.63	21.7093	4.71464	
1271.88	21.7252	4.60049	
1292.45	21.7385	4.48767	
1313.35	21.7485	4.37762	
1334.60	21.7569	4.27023	
1356.18	21.7637	4.16544	
1378.12	21.7689	4.06326	
1400.41	21.7729	3.96358	
1423.06	21.7758	3.86632	
1446.07	21.7780	3.77151	
1469.46	21.7799	3.67858	
1493.23	21.7815	3.58726	
1517.38	21.7819	3.49528	
1541.93	21.7793	3.40531	
1566.86	21.7750	3.31769	
1592.21	21.7695	3.23231	
1617.96	21.7628	3.14912	
1644.13	21.7551	3.06806	
1670.72	21.7465	2.98917	
1697.74	21.7374	2.91228	
1725.20	21.7277	2.83726	
1753.11	21.7176	2.76330	
1781.46	21.7063	2.69100	
1810.28	21.6940	2.62044	
1839.56	21.6809	2.55171	
1869.31	21.6671	2.48476	
1899.54	21.6527	2.41953	
1930.27	21.6377	2.35602	
1961.49	21.6222	2.29418	
1993.21	21.6061	2.23398	
2000.	21.6027	2.22143	
2026.	21.5897	2.17510	
2052.	21.5770	2.12930	
2079.	21.5633	2.08332	
2106.	21.5495	2.03884	
2134.	21.5351	1.99426	
2161.	21.5211	1.95267	
2190.	21.5059	1.90952	
2218.	21.4912	1.86921	
2247.	21.4760	1.82888	
2277.	21.4601	1.78854	
2306.	21.4448	1.75086	
2337.	21.4284	1.71192	
2367.	21.4124	1.67552	
2398.	21.3960	1.63914	
2429.	21.3795	1.60399	
2461.	21.3625	1.56893	
2493.	21.3455	1.53502	
2526.	21.3279	1.50126	
2559.	21.3103	1.46865	
2592.	21.2927	1.43711	
2626.	21.2746	1.40572	
2660.	21.2565	1.37541	
2695.	21.2378	1.34522	
2730.	21.2190	1.31608	
2766.	21.1997	1.28712	
2802.	21.1804	1.25912	
2839.	21.1605	1.23134	
2876.	21.1405	1.20453	
2914.	21.1199	1.17788	
2952.	21.0992	1.15217	
2990.	21.0783	1.12734	
3029.	21.0569	1.10269	
3069.	21.0347	1.07829	
3109.	21.0123	1.05472	
3150.	20.9892	1.03136	
3191.	20.9659	1.00881	
3232.	20.9422	0.987029	
3275.	20.9172	0.964954	
3317.	20.8924	0.944161	
3361.	20.8660	0.923078	
3405.	20.8391	0.902742	
3449.	20.8118	0.883098	
3494.	20.7833	0.863657	
3540.	20.7536	0.844503	
3586.	20.7231	0.825983	
3633.	20.6911	0.807714	
3680.	20.6582	0.790032	
3729.	20.6228	0.772257	
3777.	20.5870	0.755473	
3827.	20.5483	0.738526	
3877.	20.5080	0.722198	
3927.	20.4660	0.706450	
3979.	20.4202	0.690593	
4031.	20.3720	0.675269	
4083.	20.3210	0.660477	
4137.	20.2648	0.645682	
4191.	20.2046	0.631321	
4245.	20.1399	0.617483	
4301.	20.0672	0.603661	
4357.	19.9876	0.590258	
4414.	19.8981	0.577091	
4472.	19.7960	0.564173	
4530.	19.6800	0.551702	
4589.	19.5433	0.539415	
4649.	19.3779	0.527350	
4710.	19.1704	0.515511	
4771.	18.9007	0.504077	
4834.	18.5046	0.492674	
4897.	17.8260	0.481658	
4961.	15.0049	0.470848	
4966.30	10.4892	0.469969	
4966.50	10.4900	4.03619	
5026.	17.8190	3.96727	
5091.	18.7095	3.89424	
5158.	19.2403	3.82074	
5225.	19.6148	3.74900	
5294.	19.9118	3.67692	
5363.	20.1521	3.60667	
5433.	20.3560	3.53724	
5504.	20.5326	3.46858	
5576.	20.6881	3.40073	
5649.	20.8265	3.33376	
5722.	20.9492	3.26852	
5797.	21.0618	3.20335	
5873.	21.1643	3.13912	
5950.	21.2579	3.07577	
6027.	21.3428	3.01417	
6106.	21.4219	2.95275	
6186.	21.4950	2.89229	
6267.	21.5625	2.83284	
6349.	21.6251	2.77436	
6432.	21.6832	2.71682	
6516.	21.7371	2.66032	
6601.	21.7872	2.60484	
6687.	21.8339	2.55038	
6774.	21.8774	2.49687	
6863.	21.9184	2.44372	
6952.	21.9561	2.39221	
7043.	21.9916	2.34116	
7135.	22.0248	2.29107	
7229.	22.0559	2.24148	
7323.	22.0847	2.19340	
7419.	22.1117	2.14578	
7516.	22.1368	2.09919	
7614.	22.1601	2.05355	
7713.	22.1818	2.00892	
7814.	22.2021	1.96482	
7916.	22.2210	1.92167	
8019.	22.2384	1.87954	
8124.	22.2548	1.83788	
8230.	22.2698	1.79717	
8338.	22.2839	1.75702	
8447.	22.2967	1.71781	
8557.	22.3085	1.67954	
8669.	22.3195	1.64186	
8782.	22.3294	1.60502	
8897.	22.3386	1.56885	
9013.	22.3470	1.53343	
9131.	22.3546	1.49866	
9250.	22.3614	1.46474	
9371.	22.3676	1.43145	
9494.	22.3732	1.39861	
9618.	22.3781	1.36666	
9743.	22.3824	1.33555	
9900.58	22.3870	1.29776	
10060.7	22.3908	1.26095	
10223.4	22.3939	1.22509	
10388.8	22.3962	1.19016	
10556.8	22.3980	1.15615	
10727.6	22.3991	1.12303	
10901.1	22.3997	1.09079	
11077.4	22.3998	1.05940	
11256.6	22.3993	1.02885	
11438.6	22.3985	0.999118	
11623.6	22.3972	0.970181	
11811.7	22.3955	0.942025	
12002.7	22.3934	0.914630	
12196.8	22.3911	0.887979	
12394.1	22.3884	0.862055	
12594.6	22.3854	0.836839	
12798.3	22.3822	0.812316	
13005.3	22.3787	0.788467	
13215.6	22.3750	0.765277	
13429.4	22.3711	0.742729	
13646.6	22.3670	0.720808	
13867.3	22.3628	0.699498	
14091.6	22.3584	0.678783	
14319.5	22.3538	0.658649	
14551.1	22.3492	0.639081	
14786.5	22.3444	0.620064	
15025.6	22.3395	0.601584	
15268.7	22.3345	0.583628	
15515.6	22.3295	0.566181	
15766.6	22.3244	0.549232	
16021.6	22.3192	0.532765	
16280.7	22.3140	0.516770	
16544.1	22.3088	0.501233	
16811.6	22.3035	0.486143	
17083.6	22.2982	0.471486	
17359.9	22.2929	0.457253	
17640.6	22.2875	0.443431	
17926.0	22.2822	0.430009	
18215.9	22.2769	0.416977	
18510.5	22.2715	0.404324	
18809.9	22.2662	0.392039	
19114.2	22.2609	0.380113	
19423.3	22.2557	0.368536	
19737.5	22.2504	0.357298	
20056.7	22.2452	0.346390	
20381.1	22.2400	0.335802	
20710.8	22.2349	0.325526	
21045.7	22.2298	0.315553	
21386.1	22.2247	0.305875	
21732.0	22.2197	0.296483	
22083.5	22.2148	0.287370	
22440.7	22.2098	0.278527	
22803.7	22.2050	0.269947	
23172.5	22.2002	0.261622	
23547.3	22.1954	0.253545	
23928.2	22.1907	0.245710	
24315.2	22.1860	0.238109	
24708.5	22.1815	0.230735	
25108.1	22.1769	0.223582	
25514.2	22.1725	0.216644	
25926.9	22.1681	0.209915	
26346.2	22.1637	0.203388	
26772.4	22.1594	0.197058	
27205.4	22.1552	0.190919	
27645.4	22.1510	0.184965	
28092.6	22.1470	0.179191	
28546.9	22.1429	0.173592	
29008.7	22.1390	0.168163	
29477.9	22.1352	0.162899	
29954.6	22.1294	0.157795	
30000.0	22.1294	0.157321	
