E(eV)	f1	f2
10.0000	-9999.	1.06459	
10.1617	-9999.	1.11805	
10.3261	-9999.	1.17419	
10.4931	-9999.	1.23315	
10.6628	-9999.	1.29507	
10.8353	-9999.	1.36010	
11.0106	-9999.	1.42839	
11.1886	-9999.	1.50012	
11.3696	-9999.	1.57258	
11.5535	-9999.	1.63780	
11.7404	-9999.	1.70572	
11.9303	-9999.	1.77646	
12.1232	-9999.	1.85014	
12.3193	-9999.	1.92687	
12.5186	-9999.	1.99571	
12.7210	-9999.	2.05265	
12.9268	-9999.	2.11121	
13.1359	-9999.	2.17145	
13.3483	-9999.	2.23341	
13.5642	-9999.	2.29713	
13.7836	-9999.	2.36165	
14.0066	-9999.	2.42627	
14.2331	-9999.	2.49265	
14.4633	-9999.	2.55876	
14.6973	-9999.	2.59175	
14.9350	-9999.	2.62517	
15.1765	-9999.	2.65901	
15.4220	-9999.	2.72656	
15.6714	-9999.	2.80790	
15.9249	-9999.	2.89168	
16.1825	-9999.	2.97795	
16.4442	-9999.	3.02748	
16.7102	-9999.	3.07315	
16.9805	-9999.	3.11950	
17.2551	-9999.	3.16654	
17.5342	-9999.	3.21430	
17.8178	-9999.	3.26278	
18.1060	-9999.	3.27138	
18.3989	-9999.	3.25767	
18.6964	-9999.	3.24402	
18.9988	-9999.	3.23042	
19.3061	-9999.	3.21688	
19.6184	-9999.	3.20340	
19.9357	-9999.	3.18998	
20.2582	-9999.	3.16157	
20.5858	-9999.	3.09935	
20.9188	-9999.	3.03835	
21.2571	-9999.	2.97856	
21.6009	-9999.	2.91994	
21.9503	-9999.	2.85252	
22.3053	-9999.	2.77514	
22.6661	-9999.	2.70011	
23.0327	-9999.	2.63220	
23.4053	-9999.	2.56600	
23.7838	-9999.	2.50147	
24.1685	-9999.	2.45410	
24.5594	-9999.	2.41143	
24.9566	-9999.	2.36950	
25.3603	-9999.	2.32636	
25.7705	-9999.	2.28436	
26.1873	-9999.	2.24311	
26.6109	-9999.	2.20261	
27.0413	-9999.	2.16284	
27.4786	-9999.	2.10127	
27.9231	-9999.	2.03232	
28.3747	-9999.	1.96563	
28.8337	-9999.	1.90113	
29.3000	5.34593	1.85597	
29.7739	5.25702	1.83279	
30.2555	5.17173	1.80990	
30.7449	5.07046	1.78835	
31.2421	4.96377	1.80095	
31.7475	4.86692	1.81365	
32.2609	4.76006	1.82643	
32.7827	4.64394	1.85448	
33.3130	4.53278	1.90243	
33.8518	4.42660	1.95162	
34.3993	4.31744	2.00208	
34.9557	4.20105	2.05384	
35.5211	4.05589	2.10860	
36.0956	3.90249	2.20934	
36.6794	3.76549	2.31489	
37.2727	3.62047	2.42549	
37.8755	3.43543	2.54136	
38.4882	3.22796	2.72027	
39.1107	3.03960	2.94825	
39.7432	2.84620	3.19535	
40.3861	2.62105	3.53118	
41.0393	2.45167	3.98741	
41.7031	2.41724	4.50259	
42.3776	2.46188	4.99383	
43.0630	2.61901	5.53762	
43.7595	2.88305	5.98055	
44.4673	3.16390	6.37082	
45.1865	3.48900	6.72872	
45.9174	3.82533	7.01991	
46.6600	4.18153	7.32370	
47.4147	4.63608	7.59502	
48.1816	5.15312	7.76336	
48.9609	5.61764	7.74378	
49.7528	5.98795	7.72426	
50.5576	6.32329	7.70479	
51.3753	6.64216	7.68537	
52.2062	6.95383	7.65587	
53.0506	7.25710	7.61964	
53.9087	7.56202	7.58357	
54.7806	7.90577	7.54768	
55.6667	8.26579	7.38536	
56.5670	8.54688	7.18592	
57.4820	8.77045	6.99185	
58.4117	8.96621	6.80303	
59.3564	9.15533	6.61931	
60.3165	9.32005	6.39919	
61.2921	9.43236	6.18624	
62.2834	9.51170	5.98039	
63.2908	9.55780	5.80479	
64.3145	9.59663	5.65760	
65.3547	9.63381	5.52309	
66.4118	9.66939	5.40679	
67.4859	9.71030	5.29293	
68.5775	9.74740	5.18148	
69.6867	9.78008	5.07237	
70.8138	9.80759	4.96556	
71.9591	9.82938	4.86100	
73.1230	9.84564	4.75864	
74.3057	9.85380	4.65361	
75.5076	9.84883	4.55006	
76.7289	9.81599	4.44882	
77.9699	9.76180	4.37791	
79.2310	9.72161	4.35426	
80.5125	9.70329	4.33074	
81.8147	9.69256	4.30734	
83.1380	9.68539	4.28407	
84.4827	9.67917	4.26093	
85.8491	9.67205	4.23790	
87.2377	9.65019	4.21501	
88.6487	9.62458	4.21946	
90.0825	9.61894	4.23455	
91.5395	9.62209	4.24969	
93.0201	9.63112	4.26488	
94.5246	9.64460	4.28013	
96.0535	9.66165	4.29543	
97.6071	9.68165	4.31079	
99.1858	9.70413	4.32621	
100.790	9.72866	4.34167	
102.420	9.75481	4.35720	
104.077	9.78221	4.37277	
105.760	9.80685	4.38841	
107.471	9.83196	4.41221	
109.209	9.86498	4.43993	
110.975	9.90322	4.46783	
112.770	9.94598	4.49590	
114.594	9.99333	4.52415	
116.448	10.0459	4.55258	
118.331	10.1049	4.58118	
120.245	10.1805	4.60766	
122.190	10.2585	4.60580	
124.166	10.3197	4.60394	
126.175	10.3791	4.60208	
128.215	10.4367	4.60023	
130.289	10.4930	4.59837	
132.397	10.5487	4.59652	
134.538	10.6040	4.59466	
136.714	10.6596	4.59275	
138.925	10.7150	4.58968	
141.172	10.7697	4.58662	
143.456	10.8244	4.58356	
145.776	10.8793	4.58050	
148.134	10.9344	4.57744	
150.530	10.9899	4.57438	
152.964	11.0462	4.57133	
155.439	11.1034	4.56828	
157.953	11.1618	4.56523	
160.507	11.2222	4.56218	
163.103	11.2850	4.55914	
165.742	11.3586	4.55609	
168.422	11.4339	4.53222	
171.146	11.4954	4.50800	
173.915	11.5545	4.48391	
176.727	11.6115	4.45996	
179.586	11.6670	4.43612	
182.491	11.7216	4.41242	
185.442	11.7757	4.38884	
188.442	11.8302	4.36539	
191.489	11.8867	4.34207	
194.587	11.9496	4.31460	
197.734	12.0096	4.27240	
200.932	12.0578	4.23059	
204.182	12.1025	4.18920	
207.485	12.1439	4.14821	
210.840	12.1825	4.10762	
214.251	12.2185	4.06744	
217.716	12.2524	4.02764	
221.237	12.2843	3.98823	
224.816	12.3143	3.94921	
228.452	12.3428	3.91057	
232.147	12.3700	3.87231	
235.902	12.3967	3.83442	
239.717	12.4245	3.79691	
243.595	12.4511	3.75039	
247.535	12.4708	3.70425	
251.538	12.4866	3.65866	
255.607	12.4992	3.61365	
259.741	12.5088	3.56918	
263.942	12.5157	3.52526	
268.211	12.5200	3.48188	
272.549	12.5217	3.43904	
276.957	12.5211	3.39672	
281.437	12.5183	3.35492	
285.989	12.5138	3.31365	
290.615	12.5093	3.27287	
295.315	12.5041	3.22483	
300.092	12.4909	3.17394	
304.945	12.4706	3.12385	
309.878	12.4451	3.07454	
314.890	12.4146	3.02602	
319.983	12.3790	2.97826	
325.158	12.3383	2.93126	
330.418	12.2925	2.88500	
335.762	12.2412	2.83947	
341.192	12.1844	2.79466	
346.711	12.1218	2.75056	
352.319	12.0537	2.70715	
358.017	11.9797	2.66177	
363.808	11.8963	2.61498	
369.692	11.8026	2.56900	
375.672	11.6989	2.52384	
381.748	11.5844	2.47947	
387.922	11.4581	2.43588	
394.197	11.3189	2.39306	
400.573	11.1652	2.35099	
407.052	10.9955	2.30966	
413.635	10.8088	2.26906	
420.326	10.6004	2.22163	
427.124	10.3608	2.17464	
434.032	10.0876	2.12864	
441.052	9.77452	2.08362	
448.186	9.41175	2.03955	
455.435	8.98640	1.99770	
462.802	8.48336	1.96436	
470.287	7.87842	1.93158	
477.894	7.12309	1.89934	
485.623	6.13361	1.86794	
493.478	4.73516	1.84039	
501.459	2.43847	1.81326	
509.570	-3.72361	1.78653	
512.000	-18.0914	1.77867	
512.200	-18.0749	15.8717	
517.812	0.321069	15.6628	
526.187	4.59015	15.3600	
534.698	6.85921	15.0633	
543.346	8.41194	14.7722	
552.134	9.58295	14.4866	
561.065	10.4908	14.1915	
570.139	11.1288	13.9247	
579.361	11.6369	13.8658	
588.732	12.1773	13.8610	
598.254	12.7201	13.8909	
607.930	13.2814	13.9210	
617.763	13.8571	13.9511	
627.755	14.4884	13.9736	
637.908	15.1664	13.9009	
648.226	15.8290	13.6893	
658.711	16.3808	13.3909	
669.365	16.8128	13.0991	
680.191	17.1886	12.8422	
691.193	17.5478	12.6122	
702.372	17.8961	12.3914	
713.733	18.2364	12.1551	
725.277	18.5471	11.9101	
737.008	18.8300	11.6697	
748.928	19.0941	11.4339	
761.042	19.3418	11.2027	
773.351	19.5762	10.9754	
785.859	19.7987	10.7472	
798.570	20.0049	10.5194	
811.486	20.1955	10.2965	
824.611	20.3743	10.0786	
837.949	20.5431	9.86543	
851.502	20.7027	9.65540	
865.274	20.8530	9.44854	
879.269	20.9942	9.24501	
893.491	21.1268	9.04578	
907.943	21.2524	8.85086	
922.628	21.3737	8.66015	
937.551	21.4894	8.46752	
952.715	21.5953	8.27764	
968.124	21.6937	8.09071	
983.783	21.7850	7.90796	
999.695	21.8705	7.72935	
1015.86	21.9508	7.55481	
1032.29	22.0272	7.38414	
1048.99	22.1004	7.21460	
1065.96	22.1675	7.04604	
1083.20	22.2279	6.88141	
1100.72	22.2836	6.72063	
1118.52	22.3351	6.56361	
1136.61	22.3827	6.41028	
1155.	22.4268	6.26051	
1173.68	22.4676	6.11422	
1192.66	22.5054	5.97140	
1211.95	22.5407	5.83188	
1231.55	22.5740	5.69560	
1251.47	22.6055	5.56125	
1271.72	22.6344	5.42881	
1292.29	22.6602	5.29799	
1313.19	22.6825	5.17025	
1334.43	22.7024	5.04557	
1356.01	22.7199	4.92388	
1377.94	22.7355	4.80517	
1400.23	22.7493	4.68929	
1422.88	22.7615	4.57614	
1445.89	22.7726	4.46588	
1469.28	22.7829	4.35772	
1493.04	22.7928	4.25132	
1517.19	22.8013	4.14452	
1541.73	22.8058	4.04004	
1566.67	22.8084	3.93824	
1592.01	22.8095	3.83887	
1617.76	22.8090	3.74202	
1643.92	22.8072	3.64769	
1670.51	22.8044	3.55565	
1697.53	22.8006	3.46595	
1724.99	22.7961	3.37856	
1752.89	22.7912	3.29215	
1781.24	22.7847	3.20755	
1810.05	22.7769	3.12482	
1839.32	22.7680	3.04420	
1869.07	22.7581	2.96563	
1899.30	22.7474	2.88906	
1930.02	22.7359	2.81448	
1961.24	22.7237	2.74185	
1992.96	22.7108	2.67118	
2025.20	22.6976	2.60304	
2057.95	22.6847	2.53546	
2091.24	22.6708	2.46935	
2125.06	22.6562	2.40491	
2159.43	22.6410	2.34206	
2194.36	22.6253	2.28078	
2229.85	22.6091	2.22100	
2265.92	22.5924	2.16273	
2302.57	22.5754	2.10592	
2339.81	22.5579	2.05053	
2377.66	22.5400	1.99651	
2416.11	22.5217	1.94386	
2455.19	22.5031	1.89256	
2494.90	22.4841	1.84254	
2535.26	22.4647	1.79378	
2576.26	22.4450	1.74627	
2617.93	22.4249	1.69998	
2660.27	22.4045	1.65485	
2703.30	22.3838	1.61086	
2747.03	22.3627	1.56802	
2791.46	22.3413	1.52627	
2836.61	22.3195	1.48559	
2882.49	22.2974	1.44595	
2929.11	22.2749	1.40731	
2976.48	22.2519	1.36968	
3024.63	22.2286	1.33303	
3073.55	22.2048	1.29730	
3123.26	22.1805	1.26250	
3173.78	22.1558	1.22862	
3225.11	22.1306	1.19561	
3277.27	22.1048	1.16346	
3330.28	22.0783	1.13209	
3384.15	22.0512	1.10158	
3438.88	22.0235	1.07186	
3494.50	21.9949	1.04289	
3551.02	21.9655	1.01467	
3608.46	21.9352	0.987196	
3666.82	21.9038	0.960439	
3726.13	21.8714	0.934373	
3786.40	21.8377	0.908980	
3847.64	21.8026	0.884244	
3909.87	21.7659	0.860151	
3973.11	21.7275	0.836701	
4037.38	21.6872	0.813824	
4102.68	21.6447	0.791591	
4169.03	21.5997	0.769884	
4236.46	21.5517	0.748762	
4304.98	21.5005	0.728215	
4374.62	21.4455	0.708158	
4445.37	21.3859	0.688645	
4517.27	21.3210	0.669615	
4590.33	21.2497	0.651120	
4664.58	21.1706	0.633056	
4740.03	21.0819	0.615488	
4816.69	20.9811	0.598402	
4894.60	20.8645	0.581709	
4973.77	20.7269	0.565464	
5054.21	20.5597	0.549642	
5135.96	20.3484	0.534231	
5219.03	20.0652	0.519220	
5303.44	19.6446	0.504591	
5389.22	18.8588	0.490341	
5465.	11.4907	0.478268	
5465.20	11.4913	4.00981	
5476.39	16.8218	3.99813	
5564.97	19.3555	3.90769	
5654.98	20.1337	3.81866	
5746.44	20.6185	3.73073	
5839.39	20.9733	3.64405	
5933.83	21.2532	3.55863	
6029.81	21.4838	3.47450	
6127.33	21.6793	3.39162	
6226.44	21.8483	3.31010	
6327.15	21.9965	3.22992	
6429.48	22.1277	3.15113	
6533.48	22.2450	3.07367	
6639.15	22.3504	2.99756	
6746.54	22.4456	2.92291	
6855.65	22.5321	2.84969	
6966.54	22.6108	2.77778	
7079.22	22.6825	2.70728	
7193.72	22.7482	2.63821	
7310.07	22.8083	2.57047	
7428.31	22.8634	2.50417	
7548.45	22.9140	2.43925	
7670.54	22.9604	2.37565	
7794.61	23.0031	2.31346	
7920.68	23.0424	2.25257	
8048.79	23.0784	2.19300	
8178.98	23.1115	2.13478	
8311.26	23.1418	2.07784	
8445.69	23.1697	2.02216	
8582.29	23.1951	1.96779	
8721.11	23.2184	1.91465	
8862.16	23.2397	1.86275	
9005.50	23.2591	1.81215	
9151.16	23.2767	1.76262	
9299.17	23.2927	1.71434	
9449.58	23.3072	1.66719	
9602.42	23.3202	1.62121	
9757.73	23.3319	1.57638	
9915.55	23.3423	1.53265	
10075.9	23.3517	1.48997	
10238.9	23.3599	1.44835	
10404.5	23.3670	1.40777	
10572.8	23.3733	1.36822	
10743.8	23.3786	1.32967	
10917.6	23.3831	1.29210	
11094.2	23.3868	1.25550	
11273.6	23.3898	1.21984	
11455.9	23.3921	1.18511	
11641.2	23.3938	1.15128	
11829.5	23.3949	1.11834	
12020.8	23.3954	1.08626	
12215.3	23.3954	1.05503	
12412.8	23.3949	1.02463	
12613.6	23.3940	0.995038	
12817.6	23.3927	0.966240	
13025.0	23.3910	0.938214	
13235.6	23.3889	0.910946	
13449.7	23.3865	0.884416	
13667.2	23.3838	0.858606	
13888.3	23.3808	0.833500	
14112.9	23.3775	0.809081	
14341.2	23.3740	0.785334	
14573.1	23.3703	0.762239	
14808.9	23.3664	0.739784	
15048.4	23.3623	0.717951	
15291.8	23.3580	0.696726	
15539.1	23.3536	0.676092	
15790.4	23.3490	0.656036	
16045.8	23.3444	0.636542	
16305.4	23.3396	0.617596	
16569.1	23.3347	0.599186	
16837.1	23.3297	0.581295	
17109.4	23.3247	0.563912	
17386.1	23.3195	0.547023	
17667.4	23.3144	0.530616	
17953.1	23.3091	0.514677	
18243.5	23.3039	0.499194	
18538.6	23.2986	0.484155	
18838.4	23.2933	0.469549	
19143.1	23.2880	0.455364	
19452.7	23.2826	0.441589	
19767.4	23.2773	0.428212	
20087.1	23.2720	0.415224	
20412.0	23.2666	0.402612	
20742.1	23.2613	0.390369	
21077.6	23.2560	0.378481	
21418.5	23.2508	0.366942	
21765.0	23.2455	0.355741	
22117.0	23.2403	0.344868	
22474.7	23.2351	0.334315	
22838.2	23.2300	0.324072	
23207.6	23.2249	0.314131	
23583.0	23.2198	0.304484	
23964.4	23.2148	0.295123	
24352.0	23.2098	0.286038	
24745.9	23.2049	0.277224	
25146.2	23.2000	0.268672	
25552.9	23.1952	0.260374	
25966.2	23.1904	0.252324	
26386.1	23.1857	0.244513	
26812.9	23.1811	0.236937	
27246.6	23.1765	0.229588	
27687.3	23.1720	0.222459	
28135.1	23.1675	0.215544	
28590.2	23.1631	0.208837	
29052.6	23.1588	0.202332	
29522.5	23.1551	0.196023	
30000.0	23.1485	0.189905	
