E(eV)	f1	f2
10.0000	-9999.	1.91773	
10.1617	-9999.	1.94593	
10.3261	-9999.	1.97456	
10.4931	-9999.	2.00360	
10.6628	-9999.	2.03307	
10.8353	-9999.	2.06298	
11.0106	-9999.	2.08995	
11.1886	-9999.	2.09147	
11.3696	-9999.	2.09299	
11.5535	-9999.	2.09452	
11.7404	-9999.	2.09604	
11.9303	-9999.	2.09757	
12.1232	-9999.	2.09910	
12.3193	-9999.	2.07380	
12.5186	-9999.	2.04269	
12.7210	-9999.	2.01204	
12.9268	-9999.	1.98186	
13.1359	-9999.	1.95212	
13.3483	-9999.	1.92283	
13.5642	-9999.	1.89326	
13.7836	-9999.	1.82864	
14.0066	-9999.	1.76622	
14.2331	-9999.	1.70594	
14.4633	-9999.	1.64771	
14.6973	-9999.	1.58943	
14.9350	-9999.	1.53225	
15.1765	-9999.	1.47713	
15.4220	-9999.	1.42399	
15.6714	-9999.	1.37276	
15.9249	-9999.	1.32265	
16.1825	-9999.	1.27374	
16.4442	-9999.	1.22665	
16.7102	-9999.	1.18129	
16.9805	-9999.	1.13761	
17.2551	-9999.	1.10152	
17.5342	-9999.	1.07044	
17.8178	-9999.	1.04024	
18.1060	-9999.	1.01089	
18.3989	-9999.	0.982368	
18.6964	-9999.	0.954653	
18.9988	-9999.	0.942543	
19.3061	-9999.	0.937272	
19.6184	-9999.	0.932031	
19.9357	-9999.	0.926820	
20.2582	-9999.	0.921637	
20.5858	-9999.	0.922103	
20.9188	-9999.	0.936428	
21.2571	-9999.	0.950975	
21.6009	-9999.	0.965748	
21.9503	-9999.	0.987730	
22.3053	-9999.	1.02598	
22.6661	-9999.	1.06571	
23.0327	-9999.	1.10698	
23.4053	-9999.	1.15127	
23.7838	-9999.	1.23259	
24.1685	-9999.	1.31966	
24.5594	-9999.	1.41288	
24.9566	-9999.	1.51268	
25.3603	-9999.	1.65754	
25.7705	-9999.	1.93279	
26.1873	-9999.	2.25377	
26.6109	-9999.	2.62804	
27.0413	-9999.	3.30060	
27.4786	-9999.	4.83125	
27.9231	-9999.	7.07175	
28.3747	-9999.	10.3513	
28.8337	-9999.	14.3124	
29.3000	-5.81131	15.2941	
29.7739	-4.33537	16.3432	
30.2555	-2.91511	17.4642	
30.7449	-1.09221	18.2054	
31.2421	0.362823	18.5804	
31.7475	1.73328	18.9631	
32.2609	3.19011	19.3538	
32.7827	4.75193	19.3689	
33.3130	6.09217	19.2585	
33.8518	7.42152	19.1487	
34.3993	8.94012	18.9752	
34.9557	10.2630	18.1654	
35.5211	11.2402	17.3902	
36.0956	12.0398	16.6480	
36.6794	12.7167	15.9376	
37.2727	13.3002	15.2574	
37.8755	13.8095	14.6063	
38.4882	14.2590	13.9830	
39.1107	14.6605	13.3863	
39.7432	15.0245	12.8150	
40.3861	15.3620	12.2681	
41.0393	15.6867	11.7446	
41.7031	16.0259	11.2434	
42.3776	16.4604	10.7039	
43.0630	16.7656	9.92317	
43.7595	16.9142	9.19944	
44.4673	16.9731	8.52848	
45.1865	16.9764	7.90646	
45.9174	16.9383	7.32981	
46.6600	16.8684	6.79521	
47.4147	16.7738	6.29961	
48.1816	16.6598	5.84014	
48.9609	16.5309	5.41421	
49.7528	16.3904	5.01931	
50.5576	16.2413	4.65324	
51.3753	16.0863	4.31385	
52.2062	15.9287	3.99923	
53.0506	15.7749	3.70474	
53.9087	15.6115	3.41263	
54.7806	15.4366	3.14356	
55.6667	15.2555	2.89569	
56.5670	15.0712	2.66738	
57.4820	14.8850	2.45706	
58.4117	14.6976	2.26333	
59.3564	14.5090	2.08488	
60.3165	14.3187	1.92049	
61.2921	14.1240	1.76906	
62.2834	13.9138	1.64162	
63.2908	13.7254	1.55336	
64.3145	13.5542	1.46983	
65.3547	13.3930	1.39080	
66.4118	13.2381	1.31602	
67.4859	13.0874	1.24525	
68.5775	12.9395	1.17830	
69.6867	12.7928	1.11494	
70.8138	12.6433	1.05499	
71.9591	12.4902	1.01148	
73.1230	12.3483	0.976329	
74.3057	12.2124	0.942397	
75.5076	12.0764	0.909647	
76.7289	11.9309	0.881537	
77.9699	11.7946	0.877539	
79.2310	11.6706	0.873560	
80.5125	11.5522	0.869598	
81.8147	11.4370	0.865655	
83.1380	11.3231	0.861730	
84.4827	11.2069	0.857822	
85.8491	11.0864	0.864246	
87.2377	10.9755	0.878229	
88.6487	10.8698	0.892439	
90.0825	10.7671	0.906879	
91.5395	10.6664	0.921552	
93.0201	10.5667	0.936463	
94.5246	10.4668	0.951615	
96.0535	10.3651	0.970106	
97.6071	10.2665	0.991478	
99.1858	10.1698	1.01332	
100.790	10.0739	1.03565	
102.420	9.97899	1.05846	
104.077	9.88635	1.08108	
105.760	9.79160	1.09817	
107.471	9.69320	1.11553	
109.209	9.59148	1.13316	
110.975	9.48646	1.15107	
112.770	9.37724	1.16950	
114.594	9.26462	1.18957	
116.448	9.14829	1.20998	
118.331	9.02732	1.23074	
120.245	8.90084	1.25186	
122.190	8.76750	1.27334	
124.166	8.62502	1.29756	
126.175	8.47683	1.32478	
128.215	8.32065	1.35258	
130.289	8.15178	1.38153	
132.397	7.97311	1.41935	
134.538	7.78327	1.45820	
136.714	7.57191	1.49812	
138.925	7.34255	1.56207	
141.172	7.10432	1.63525	
143.456	6.83081	1.72469	
145.776	6.55359	1.86657	
148.134	6.32371	2.05420	
150.530	6.11114	2.19636	
152.964	5.87024	2.29515	
155.439	5.54845	2.38907	
157.953	5.16028	2.55826	
160.507	4.75829	2.80212	
163.103	4.34515	3.08702	
165.742	3.86740	3.47201	
168.422	3.45308	3.98833	
171.146	3.13702	4.57353	
173.915	2.85995	5.16459	
176.727	2.62273	5.83202	
179.586	2.50523	6.58572	
182.491	2.46748	7.24273	
185.442	2.45511	7.94585	
188.442	2.53544	8.71724	
191.489	2.82368	9.41805	
194.587	3.07377	9.97403	
197.734	3.31658	10.5119	
200.932	3.59031	11.0702	
204.182	4.00603	11.5651	
207.485	4.32951	11.9037	
210.840	4.59975	12.2521	
214.251	4.85185	12.6108	
217.716	5.10083	12.9799	
221.237	5.35835	13.3599	
224.816	5.64865	13.7484	
228.452	5.94021	14.0861	
232.147	6.22556	14.4322	
235.902	6.51712	14.7867	
239.717	6.83829	15.1499	
243.595	7.19041	15.4625	
247.535	7.51985	15.7510	
251.538	7.83364	16.0449	
255.607	8.14976	16.3443	
259.741	8.48081	16.6485	
263.942	8.81499	16.9372	
268.211	9.14971	17.2309	
272.549	9.49260	17.5297	
276.957	9.84803	17.8337	
281.437	10.2212	18.1429	
285.989	10.6383	18.4547	
290.615	11.0614	18.7182	
295.315	11.4812	18.9854	
300.092	11.9151	19.2565	
304.945	12.3785	19.5314	
309.878	12.9082	19.7745	
314.890	13.4052	19.9436	
319.983	13.8835	20.1140	
325.158	14.3605	20.2859	
330.418	14.8441	20.4593	
335.762	15.3409	20.6342	
341.192	15.8581	20.8106	
346.711	16.4535	20.9667	
352.319	17.0262	21.0384	
358.017	17.5702	21.1104	
363.808	18.1182	21.1827	
369.692	18.6803	21.2551	
375.672	19.2673	21.3279	
381.748	19.9808	21.3658	
387.922	20.6426	21.2475	
394.197	21.2373	21.1299	
400.573	21.8245	21.0130	
407.052	22.4716	20.8967	
413.635	23.1403	20.6341	
420.326	23.6932	20.2882	
427.124	24.1712	19.9481	
434.032	24.6012	19.6137	
441.052	24.9932	19.2849	
448.186	25.3528	18.9617	
455.435	25.6829	18.6438	
462.802	25.9690	18.3313	
470.287	26.2407	18.0647	
477.894	26.5150	17.8055	
485.623	26.7830	17.5500	
493.478	27.0431	17.2982	
501.459	27.2950	17.0500	
509.570	27.5391	16.8053	
517.812	27.7760	16.5642	
526.187	28.0067	16.3265	
534.698	28.2350	16.0923	
543.346	28.4544	15.8501	
552.134	28.6635	15.6116	
561.065	28.8639	15.3766	
570.139	29.0573	15.1453	
579.361	29.2445	14.9174	
588.732	29.4262	14.6929	
598.254	29.6032	14.4718	
607.930	29.7762	14.2540	
617.763	29.9462	14.0395	
627.755	30.1143	13.8282	
637.908	30.2823	13.6202	
648.226	30.4512	13.4152	
658.711	30.6555	13.2036	
669.365	30.8356	12.9426	
680.191	30.9810	12.6867	
691.193	31.1121	12.4359	
702.372	31.2316	12.1900	
713.733	31.3413	11.9490	
725.277	31.4425	11.7128	
737.008	31.5361	11.4812	
748.928	31.6228	11.2542	
761.042	31.7032	11.0317	
773.351	31.7778	10.8136	
785.859	31.8470	10.6000	
798.570	31.9115	10.3907	
811.486	31.9714	10.1856	
824.611	32.0273	9.98451	
837.949	32.0795	9.78739	
851.502	32.1282	9.59417	
865.274	32.1740	9.40476	
879.269	32.2176	9.21909	
893.491	32.2594	9.03709	
907.943	32.3080	8.85868	
922.628	32.3539	8.66626	
937.551	32.3856	8.47165	
952.715	32.4079	8.28141	
968.124	32.4233	8.09544	
983.783	32.4328	7.91365	
999.695	32.4369	7.73593	
1015.86	32.4360	7.56222	
1032.29	32.4302	7.39240	
1048.99	32.4193	7.22179	
1065.96	32.4014	7.06587	
1083.20	32.3815	6.91330	
1100.72	32.3608	6.76403	
1118.52	32.3375	6.61799	
1136.61	32.3113	6.47510	
1155.	32.2822	6.33529	
1173.68	32.2499	6.19850	
1192.66	32.2146	6.06467	
1211.95	32.1759	5.93372	
1231.55	32.1340	5.80561	
1251.47	32.0885	5.68025	
1271.72	32.0395	5.55761	
1292.29	31.9867	5.43761	
1313.19	31.9300	5.32021	
1334.43	31.8692	5.20534	
1356.01	31.8041	5.09295	
1377.94	31.7342	4.98299	
1400.23	31.6594	4.87539	
1422.88	31.5792	4.77013	
1445.89	31.4931	4.66713	
1469.28	31.4004	4.56636	
1493.04	31.2998	4.46777	
1517.19	31.1896	4.37444	
1541.73	31.0740	4.28732	
1566.67	30.9531	4.20193	
1592.01	30.8238	4.11824	
1617.76	30.6848	4.03622	
1643.92	30.5345	3.95583	
1670.51	30.3711	3.87704	
1697.53	30.1924	3.79982	
1724.99	29.9958	3.72414	
1752.89	29.7781	3.64997	
1781.24	29.5350	3.57727	
1810.05	29.2608	3.50602	
1839.32	28.9523	3.43619	
1869.07	28.5942	3.35901	
1899.30	28.1623	3.27801	
1930.02	27.6327	3.19896	
1961.24	26.9634	3.12181	
1992.96	26.0698	3.04653	
2025.20	24.7492	2.97306	
2057.95	22.2099	2.90137	
2079.90	7.98032	2.85492	
2080.10	7.98382	11.1239	
2091.24	20.3061	10.9941	
2125.06	23.2493	10.6130	
2155.40	18.1013	10.2874	
2155.60	18.1127	14.0289	
2159.43	22.3519	14.0069	
2194.36	25.9700	13.8098	
2229.85	27.4629	13.6156	
2265.92	28.5215	13.4240	
2302.57	29.3144	13.1476	
2339.81	29.7635	12.8233	
2372.40	27.7086	12.5501	
2372.60	27.7169	14.1143	
2377.66	29.5078	14.0784	
2416.11	31.0850	13.8104	
2455.19	31.9055	13.5475	
2494.90	32.5559	13.2896	
2535.26	33.1126	13.0367	
2576.26	33.6054	12.7885	
2617.93	34.0506	12.5451	
2660.27	34.4590	12.3063	
2703.30	34.8386	12.0720	
2747.03	35.1952	11.8422	
2791.46	35.5539	11.6168	
2836.61	35.9049	11.3588	
2882.49	36.2085	11.0670	
2929.11	36.4707	10.7827	
2976.48	36.7046	10.5058	
3024.63	36.9155	10.2359	
3073.55	37.1066	9.97297	
3123.26	37.2803	9.71678	
3173.78	37.4384	9.46718	
3225.11	37.5824	9.22400	
3277.27	37.7130	8.98707	
3330.28	37.8300	8.75619	
3384.15	37.9362	8.53690	
3438.88	38.0358	8.32518	
3494.50	38.1294	8.11869	
3551.02	38.2163	7.91736	
3608.46	38.2969	7.72099	
3666.82	38.3718	7.52950	
3726.13	38.4416	7.34276	
3786.40	38.5081	7.16064	
3847.64	38.5712	6.97781	
3909.87	38.6261	6.79509	
3973.11	38.6717	6.61716	
4037.38	38.7106	6.44388	
4102.68	38.7425	6.27517	
4169.03	38.7635	6.11086	
4236.46	38.7817	5.96692	
4304.98	38.8043	5.82638	
4374.62	38.8269	5.68915	
4445.37	38.8487	5.55515	
4517.27	38.8695	5.42429	
4590.33	38.8892	5.29653	
4664.58	38.9080	5.17178	
4740.03	38.9261	5.04996	
4816.69	38.9442	4.93102	
4894.60	38.9643	4.81486	
4973.77	38.9854	4.69328	
5054.21	39.0006	4.57003	
5135.96	39.0096	4.45001	
5219.03	39.0157	4.33313	
5303.44	39.0192	4.21934	
5389.22	39.0205	4.10853	
5476.39	39.0199	4.00062	
5564.97	39.0175	3.89556	
5654.98	39.0136	3.79325	
5746.44	39.0082	3.69363	
5839.39	39.0016	3.59663	
5933.83	38.9938	3.50217	
6029.81	38.9849	3.41020	
6127.33	38.9751	3.32064	
6226.44	38.9643	3.23343	
6327.15	38.9528	3.14852	
6429.48	38.9405	3.06583	
6533.48	38.9277	2.98531	
6639.15	38.9143	2.90651	
6746.54	38.9000	2.82978	
6855.65	38.8851	2.75509	
6966.54	38.8697	2.68236	
7079.22	38.8539	2.61155	
7193.72	38.8376	2.54261	
7310.07	38.8210	2.47549	
7428.31	38.8041	2.41015	
7548.45	38.7871	2.34653	
7670.54	38.7699	2.28459	
7794.61	38.7529	2.22428	
7920.68	38.7361	2.16557	
8048.79	38.7215	2.10841	
8178.98	38.7081	2.04884	
8311.26	38.6912	1.98689	
8445.69	38.6714	1.92681	
8582.29	38.6499	1.86854	
8721.11	38.6271	1.81204	
8862.16	38.6031	1.75725	
9005.50	38.5783	1.70412	
9151.16	38.5525	1.65258	
9299.17	38.5258	1.60262	
9449.58	38.4983	1.55415	
9602.42	38.4699	1.50716	
9757.73	38.4398	1.46159	
9915.55	38.4085	1.41895	
10075.9	38.3778	1.37929	
10238.9	38.3476	1.34073	
10404.5	38.3173	1.30324	
10572.8	38.2867	1.26678	
10743.8	38.2558	1.23133	
10917.6	38.2243	1.19687	
11094.2	38.1923	1.16336	
11273.6	38.1596	1.13079	
11455.9	38.1260	1.09912	
11641.2	38.0916	1.06833	
11829.5	38.0562	1.03839	
12020.8	38.0196	1.00929	
12215.3	37.9818	0.981004	
12412.8	37.9424	0.953504	
12613.6	37.9014	0.926771	
12817.6	37.8585	0.900784	
13025.0	37.8134	0.875521	
13235.6	37.7657	0.850965	
13449.7	37.7151	0.827094	
13667.2	37.6611	0.803890	
13888.3	37.6031	0.781334	
14112.9	37.5402	0.759408	
14341.2	37.4716	0.738096	
14573.1	37.3959	0.717378	
14808.9	37.3113	0.697241	
15048.4	37.2156	0.677666	
15291.8	37.1053	0.658639	
15539.1	36.9754	0.640144	
15790.4	36.8176	0.622165	
16045.8	36.6180	0.604690	
16305.4	36.3486	0.587703	
16569.1	35.9421	0.571190	
16837.1	35.1423	0.555139	
17038.3	27.4822	0.543547	
17038.5	27.4824	3.73384	
17109.4	34.1839	3.71062	
17386.1	35.8664	3.62228	
17667.4	36.5150	3.53536	
17953.1	36.9304	3.44989	
18243.5	37.2372	3.36588	
18538.6	37.4801	3.28334	
18838.4	37.6803	3.20228	
19143.1	37.8499	3.12271	
19452.7	37.9963	3.04464	
19767.4	38.1243	2.96805	
20087.1	38.2374	2.89296	
20412.0	38.3381	2.81936	
20742.1	38.4284	2.74724	
21077.6	38.5096	2.67659	
21418.5	38.5831	2.60741	
21765.0	38.6497	2.53969	
22117.0	38.7102	2.47341	
22474.7	38.7653	2.40857	
22838.2	38.8155	2.34514	
23207.6	38.8614	2.28312	
23583.0	38.9032	2.22248	
23964.4	38.9415	2.16321	
24352.0	38.9765	2.10530	
24745.9	39.0084	2.04872	
25146.2	39.0375	1.99345	
25552.9	39.0641	1.93948	
25966.2	39.0883	1.88679	
26386.1	39.1104	1.83536	
26812.9	39.1304	1.78516	
27246.6	39.1486	1.73617	
27687.3	39.1650	1.68839	
28135.1	39.1798	1.64177	
28590.2	39.1931	1.59631	
29052.6	39.2050	1.55197	
29522.5	39.2156	1.50875	
30000.0	39.2250	1.46662	
